ENTRY            L0252   20190522   20190919   20190918       L042
SUBENT        L0252001   20190522   20190919   20190918       L042
BIB                 10         33
TITLE      Photofission of 238U with monochromatic gamma rays in
           the energy range 11- 16 MeV
AUTHOR     (W.Wilke,U.Kneissl,Th.Weber,H.Stroher,L.S.Cardman,
           P.T.Debevec,S.D.Hoblit,R.T.Jones,A.M.Nathan)
INSTITUTE  (2GERJLU,2GERGSI,1USAUI)
REFERENCE  (J,PR/C,42,2148,1990)
           #doi:10.1103/PhysRevC.42.2148
           #NSR: 1990WI15
FACILITY   (MICRT,1USAUI)  Superconducting microtron MUSL-2 in
           the University of Illinois at Urbana-Champaign
INC-SOURCE (TAGD)   Bremsstrahlung monochromator
DETECTOR   (D4PI,PPAC) A dedicated 4m arrangement of 12 position-
           sensitive parallel-plate avalanche counters was built
           in order to measure the photofission fragment angular
           and mass distributions simultaneously. Two detectors
           provided spatial information as well as the start
           signals for the double time-of-flight measurement,
           which permitted the fragment mass information to be
           deduced. Two hemispheres, each consisting of five
           independent detectors, were mounted a distance of
           12.5 cm from the target center, and covered a solid
           angle of almost 4pi.
           (NAICR) The tagging efficiency was measured in
           separate calibration runs with a 25.4 cm x 35.6 cm
           NaI detector using a very low intensity electron beam
           with an endpoint energy of 21 MeV to produce the tagged
           photons.
SAMPLE     A homogeneous 7cm x 10cm fissile target of 400 mu-g/cm2
           of 238U evaporated onto a 200mu-g/cm2 mylar foil used.
           The target was sandwiched between the two inner
           detectors, which are separated by a distance of 1 cm.
METHOD     (TOF)
HISTORY    (20190522C) OG.
ENDBIB              33
NOCOMMON             0          0
ENDSUBENT           36
SUBENT        L0252002   20190522   20190919   20190918       L042
BIB                  4          7
REACTION   (92-U-238(G,F),,SIG)
ERR-ANALYS (DATA-ERR) No information on sources of uncertainties
ANALYSIS   EN=(7.6301-10.0330)MeV  1-st run
           EN=(11.1602-13.9093)MeV 2-nd run
           EN=(14.0970-16.1196)MeV 3-rd run
STATUS     (CURVE) Fig. 3 in Phys.Rev.C42,2148,1990 was digitized
           by GSYS2.4.7.
ENDBIB               7
COMMON               1          3
EN-RSL
KEV
200.
ENDCOMMON            3
DATA                 3         87
EN         DATA       DATA-ERR
MEV        MB         MB
     7.6301    13.4416     2.1216
     7.6921    11.5194     1.8181
     7.7540     9.7993     2.2226
     7.8164    13.5346     2.0205
     7.8787    15.1484     2.1218
     7.9495    13.4279     1.8183
     8.0161    13.7281     1.6168
     8.0646    10.1900     2.0205
     8.1448    14.8339     1.9197
     8.2073    19.0743     1.9193
     8.2869    16.3432     1.8183
     8.3627    20.2800     1.9197
     8.4423    17.3468     1.6166
     8.5135    19.8694     1.8187
     8.5977    19.0576     1.5156
     8.6462    15.6205     1.7175
     8.7261    16.1223     1.9197
     8.8065    22.1805     2.0205
     8.8904    17.7316     2.2230
     8.9708    24.3960     2.3238
     9.0550    23.0790     2.5261
     9.1305    24.6922     2.2224
     9.2238    25.6985     2.3236
     9.3035    24.1797     1.7175
     9.3572    29.7339     2.2226
     9.4773    33.2647     2.0204
     9.5706    34.9781     2.0205
     9.7484    39.6178     1.7171
     9.8639    40.9262     2.7279
     9.9660    42.3362     2.0205
    10.0330    47.1826     2.6265
    11.1602   105.4270    10.2034
    11.2483    97.7452     9.3957
    11.4254    94.2016     9.0921
    11.4793   102.0794     9.9010
    11.5769   102.2773    10.2037
    11.6558    90.7568     8.6883
    11.7265    87.6219     8.5879
    11.8073    99.0345     9.7994
    11.9083    85.4925     7.9815
    12.0100    82.4573     8.0822
    12.1074    79.5234     7.8797
    12.1971    91.3397     8.4865
    12.2898    85.4761     8.2842
    12.3830    85.7752     8.3849
    12.4626    83.4482     7.9811
    12.5602    83.4440     8.1830
    12.6633    95.6639     9.1929
    12.7611    98.1854     9.5974
    12.8677   100.3024     9.7998
    12.9697    99.5908     9.5978
    13.0908   115.2448    11.2134
    13.1929   115.6446    11.6181
    13.3052   133.5216    13.1341
    13.4071   132.0018    13.4364
    13.5229   136.5431    13.7399
    13.6388   143.8121    13.9421
    13.7552   156.2335    15.2555
    13.8653   147.0352    14.6487
    13.9093   141.9820     9.2951
    14.0331   137.0263     8.8980
    14.0970   158.4414     9.6984
    14.1411   156.1159    14.9524
    14.2521   156.2121     7.4756
    14.3195   166.7161    11.3255
    14.3948   165.1975    11.0118
    14.4511   149.1317    11.8202
    14.5269   153.3716    10.2039
    14.5931   149.5297    10.1023
    14.6457   142.4555    10.0023
    14.7960   135.2761    10.9111
    14.8583   137.7991     9.0926
    14.9240   127.5925    12.1231
    14.9869   137.1874     8.9916
    15.1057   124.6549    10.6088
    15.1498   122.4304     9.6984
    15.2174   134.3488     9.5978
    15.3104   132.7283    12.4271
    15.4599   116.9616    10.6082
    15.5300   106.3507     9.1929
    15.6094   100.2857    10.0015
    15.6939   102.8077     9.7994
    15.7695   105.8353    10.0011
    15.8495   107.6504    10.3046
    15.9561   108.2520    11.0118
    16.0670   108.9544    11.2148
    16.1196   100.4658    10.1023
ENDDATA             89
ENDSUBENT          105
SUBENT        L0252003   20190618   20190919   20190918       L042
BIB                  3          4
REACTION   (92-U-238(G,F),,DA,FF,REL)
ERR-ANALYS (DATA-ERR) No information on sources of uncertainties
STATUS     (CURVE) Fig. 4c in Phys.Rev.C42,2148,1990 was digitized
           by GSYS2.4.7.
ENDBIB               4
COMMON               2          3
EN         ANG-RSL
MEV        ADEG
11.3       10.
ENDCOMMON            3
DATA                 3          9
ANG        DATA       DATA-ERR
ADEG       ARB-UNITS  ARB-UNITS
    10.         1.7647     0.2110
    30.         1.5052     0.1918
    50.         1.3560     0.1343
    70.         0.9526     0.1103
    90.         1.0816     0.1103
   110.         1.0858     0.1199
   130.         1.2627     0.1247
   150.         1.4636     0.1870
   170.         1.7988     0.2110
ENDDATA             11
ENDSUBENT           24
SUBENT        L0252004   20190618   20190919   20190918       L042
BIB                  3          4
REACTION   (92-U-238(G,F)MASS,SEC,FY,,BRA/REL)
ERR-ANALYS No information on uncertainties
STATUS     (CURVE) Fig. 6a in Phys.Rev.C42,2148,1990 was digitized
           by GSYS2.4.7.
ENDBIB               4
COMMON               1          3
EN-MAX
MEV
21.
ENDCOMMON            3
DATA                 2        151
MASS       DATA
NO-DIM     ARB-UNITS
    63.4181     1.3423
    64.3947     3.6913
    65.2492     4.0268
    66.1038     5.7047
    67.3245     8.0537
    68.7894     7.7181
    69.6439     9.3960
    69.8881    12.0805
    71.2309    15.4362
    71.8413    23.8255
    73.7945    27.1812
    74.2828    32.8859
    74.6490    38.5906
    75.8698    46.6443
    75.9919    53.3557
    77.0905    60.4026
    77.8230    65.4362
    78.7996    69.1275
    79.0437    79.8657
    79.1658    84.5637
    79.6541    95.9731
    80.0203    89.5973
    80.0204   101.3422
    80.2645   107.7181
    80.7528   111.4093
    82.0956   119.7986
    82.3398   125.1677
    82.5839   128.8590
    83.8047   132.8858
    84.2930   177.1811
    85.0254   179.8657
    85.5137   183.8925
    86.0020   206.7113
    86.7345   207.7180
    87.5890   208.0536
    88.3215   227.8522
    89.1760   230.8723
    89.2981   247.6509
    90.0305   251.6777
    90.2747   267.7851
    91.8616   274.1609
    93.5707   269.4629
    94.1811   276.8455
    95.7681   282.8857
    96.7447   282.8857
    98.4537   275.1676
    99.6745   267.1139
   100.0407   248.6576
   101.0173   245.9730
   101.8718   214.4294
   101.9939   243.6240
   103.0926   213.0871
   103.2146   189.9328
   103.7030   180.2012
   103.8250   187.2482
   104.3133   178.1878
   105.6562   175.5032
   106.0224   147.9865
   106.7548   136.9127
   108.0977   126.8456
   109.0743   123.1543
   109.1963   111.4093
   109.8067   102.6845
   110.1729    90.2684
   110.7833    76.1744
   111.0275    83.8926
   113.1027    71.8120
   113.3469    57.3825
   113.5910    64.4295
   114.0424    52.2595
   115.5443    47.9865
   116.8057    44.6635
   118.4741    41.2751
   119.9390    44.9664
   120.1831    51.3422
   121.8922    50.6711
   122.6246    56.0402
   122.8688    68.7919
   123.2350    72.1476
   125.0661    72.1476
   125.5544    76.1744
   125.6765    82.8859
   125.7986    89.5973
   126.5310    95.6375
   126.7752   110.7382
   127.6297   117.1140
   127.8739   124.1610
   128.7284   129.8657
   129.5829   135.9060
   129.9491   147.6509
   130.6816   174.4965
   130.8037   151.0066
   131.7803   177.8522
   132.7569   181.2079
   133.0010   188.5905
   133.8555   213.0871
   134.9542   244.2951
   136.5412   247.6509
   136.7854   266.7784
   137.6399   270.8052
   137.8840   275.1676
   139.1048   276.8455
   139.8372   283.5569
   141.4242   283.8924
   142.0346   279.5300
   142.8891   276.1743
   143.1333   271.1408
   144.4761   273.4898
   145.2085   276.8455
   145.8189   270.8052
   146.7955   249.6643
   147.4059   229.5301
   148.3825   227.1811
   148.9929   209.0603
   150.3357   206.0401
   150.7019   186.2415
   151.3123   183.2214
   151.9227   179.8657
   152.6551   177.8522
   152.8993   134.2281
   153.9980   129.1946
   154.8525   125.8388
   155.0966   120.1342
   156.1953   110.0670
   156.6836    89.5973
   156.9278    95.3020
   157.1719   100.3355
   157.2940   108.0536
   157.5381    81.5436
   157.7823    67.1141
   158.6368    62.7516
   159.3693    57.7181
   159.6134    61.0738
   159.7355    52.6845
   160.4680    43.2886
   160.5900    50.0000
   160.8342    40.2684
   161.2004    33.2215
   162.0549    28.5235
   162.9095    24.4966
   164.1302    21.4765
   164.6185    17.1141
   165.3510    13.0872
   166.5717    10.0671
   167.4262     7.3825
   168.1587     5.3691
   168.8911     8.7248
   170.1119     5.3691
   171.2106     3.6913
   172.4313     2.0134
   173.4079     1.3423
ENDDATA            153
ENDSUBENT          166
ENDENTRY             4
