ENTRY            C0114     980225
SUBENT        C0114001     980225              20050926       0000
BIB                 12         24
INSTITUTE  (1USAWAU,1USAYAL)
REFERENCE  (J,PR/C,43,2012,9104)
AUTHOR     (A.GARCIA,E.G.ADELBERGER,P.V.MAGNUS,D.M.MARKOFF,
           K.B.SWARTZ,M.S.SMITH,K.I.HAHN,N.BATEMAN,P.D.PARKER)
TITLE      The 'missing' 3+ state of 18Ne and explosive
            17F(p,gamma) burning.
FACILITY   3He beam from duoplasmatron ion source accelerated by
            FN tandem accelerator.
SAMPLE     Ta2O5 targets, thickness typically 150 microg/cm2,
            mounted on Ta-lined Pyrex tee.
METHOD     (TOF,PSD)
DETECTOR   (SCIN) BC501 liquid scintillators
CORRECTION Spectra corrected for:
           . 12C contamination,
           . time resolution from electronics and beam-burst
             duration,
           . thickness of scintillator,
           . target thickness,
           . scattering of neutrons in target and detector.
ERR-ANALYS No information
STATUS     Data received by email, A. Garcia, 96/11/15.
           (APRVD) Approved by A. Garcia, 98/2/2.
HISTORY    (961115C)
           (980225A) Author approval added.
ENDBIB              24
NOCOMMON             0          0
ENDSUBENT           27
SUBENT        C0114002     961115              20050926       0000
BIB                  1          1
REACTION   (8-O-16(HE3,N)10-NE-18,PAR,DA/DE)
ENDBIB               1
COMMON               1          3
ANG
ADEG
 0.
ENDCOMMON            3
DATA                 3       2187
EN         E-EXC      DATA
MEV        MEV        MUB/SR/MEV
  9.8       4.685811    3.083737
  9.8       4.683943    4.852532
  9.8       4.682014   28.17441
  9.8       4.680144   28.75755
  9.8       4.678131   32.33961
  9.8       4.676197   34.13321
  9.8       4.674241   39.36843
  9.8       4.672223   32.97223
  9.8       4.670203   42.30391
  9.8       4.668182   37.90947
  9.8       4.666218   32.84348
  9.8       4.664172   40.31715
  9.8       4.662065   35.05632
  9.8       4.659956   35.78433
  9.8       4.657985   37.91585
  9.8       4.655872   29.95488
  9.8       4.653758   37.20817
  9.8       4.651679   35.81746
  9.8       4.649561   34.90305
  9.8       4.647359   33.31298
  9.8       4.645297   36.27716
  9.8       4.643092   34.24474
  9.8       4.640944   36.04215
  9.8       4.638594   37.59158
  9.8       4.636443   38.01569
  9.8       4.634230   34.69924
  9.8       4.631993   37.31400
  9.8       4.629754   35.12382
  9.8       4.627454   36.19134
  9.8       4.625211   36.17333
  9.8       4.622907   36.79191
  9.8       4.620600   34.44261
  9.8       4.618269   38.41904
  9.8       4.615936   39.00515
  9.8       4.613542   41.03252
  9.8       4.611145   40.97288
  9.8       4.608806   43.57137
  9.8       4.606406   48.36980
  9.8       4.603980   46.43937
  9.8       4.601575   55.56603
  9.8       4.599146   49.42398
  9.8       4.596714   47.31929
  9.8       4.594137   48.97557
  9.8       4.591641   49.04595
  9.8       4.589120   45.22937
  9.8       4.586537   48.40286
  9.8       4.584095   41.18868
  9.8       4.581507   35.39812
  9.8       4.578894   33.84029
  9.8       4.576362   35.30706
  9.8       4.573684   30.22231
  9.8       4.571004   37.43437
  9.8       4.568382   34.24017
  9.8       4.565698   31.81806
  9.8       4.563047   39.59757
  9.8       4.560359   38.07067
  9.8       4.557584   42.47556
  9.8       4.554866   44.86123
  9.8       4.552087   50.04195
  9.8       4.549281   53.21748
  9.8       4.546497   62.62936
  9.8       4.543686   71.21704
  9.8       4.540873   79.51332
  9.8       4.537997   85.81333
  9.8       4.535179   89.64689
  9.8       4.532215   92.24141
  9.8       4.529307   87.76152
  9.8       4.526338   85.00127
  9.8       4.523426   84.25652
  9.8       4.520366   71.20968
  9.8       4.517449   61.27176
  9.8       4.514445   52.11209
  9.8       4.511378   45.80730
  9.8       4.508284   37.03160
  9.8       4.505212   27.58260
  9.8       4.502112   25.03063
  9.8       4.498950   26.26454
  9.8       4.495904   24.84067
  9.8       4.492737   21.58495
  9.8       4.489542   24.64996
  9.8       4.486284   20.82933
  9.8       4.483083   22.49583
  9.8       4.479879   22.93851
  9.8       4.476528   18.16266
  9.8       4.473233   25.72241
  9.8       4.469876   21.28481
  9.8       4.466489   22.15505
  9.8       4.463127   22.43334
  9.8       4.459735   23.56825
  9.8       4.456341   24.11503
  9.8       4.452857   23.09375
  9.8       4.449397   23.49278
  9.8       4.445908   17.45932
  9.8       4.442416   20.80197
  9.8       4.438920   26.98745
  9.8       4.435336   22.41972
  9.8       4.431689   21.58047
  9.8       4.428099   23.17747
  9.8       4.424505   21.80699
  9.8       4.420763   21.64983
  9.8       4.417076   20.83432
  9.8       4.413240   23.43251
  9.8       4.409548   21.96347
  9.8       4.405766   22.32015
  9.8       4.401980   18.05939
  9.8       4.398045   22.12356
  9.8       4.394313   21.33135
  9.8       4.390372   20.04776
  9.8       4.386487   20.64737
  9.8       4.382451   17.40905
  9.8       4.378472   20.83534
  9.8       4.374430   18.85712
  9.8       4.370357   22.09915
  9.8       4.366427   22.29573
  9.8       4.362200   19.51275
  9.8       4.358117   18.65954
  9.8       4.353942   18.05189
  9.8       4.349764   22.22232
  9.8       4.345495   22.05630
  9.8       4.341311   20.63089
  9.8       4.336975   20.93142
  9.8       4.332695   22.24222
  9.8       4.328264   19.38556
  9.8       4.323948   20.35165
  9.8       4.319422   17.21782
  9.8       4.315040   18.62132
  9.8       4.310477   18.91478
  9.8       4.305999   17.36884
  9.8       4.301428   19.05667
  9.8       4.296854   19.76140
  9.8       4.292188   19.71575
  9.8       4.287547   16.00783
  9.8       4.282873   20.24576
  9.8       4.278106   16.48417
  9.8       4.273335   19.01531
  9.8       4.268561   18.05716
  9.8       4.263604   17.11199
  9.8       4.258822   16.18067
  9.8       4.253798   16.64961
  9.8       4.248888   17.40511
  9.8       4.243916   17.26955
  9.8       4.238790   18.19948
  9.8       4.233779   15.84799
  9.8       4.228645   18.39212
  9.8       4.223476   15.22209
  9.8       4.218274   18.57278
  9.8       4.213037   17.49580
  9.8       4.207767   16.06493
  9.8       4.202402   17.49469
  9.8       4.197032   15.08410
  9.8       4.191659   16.85724
  9.8       4.186100   15.02352
  9.8       4.180687   16.76651
  9.8       4.175211   15.92841
  9.8       4.169489   17.19720
  9.8       4.163882   17.14546
  9.8       4.158211   15.37532
  9.8       4.152535   17.38136
  9.8       4.146764   17.24072
  9.8       4.140898   15.17278
  9.8       4.135027   17.62701
  9.8       4.129060   15.91645
  9.8       4.123089   15.86833
  9.8       4.117173   14.92734
  9.8       4.111101   15.44866
  9.8       4.104874   14.84285
  9.8       4.098701   15.35378
  9.8       4.092583   17.03244
  9.8       4.086217   16.42435
  9.8       4.079939   15.59355
  9.8       4.073564   14.08604
  9.8       4.067091   14.27238
  9.8       4.060674   14.37915
  9.8       4.054100   14.48281
  9.8       4.047521   13.47312
  9.8       4.040845   14.68121
  9.8       4.034164   13.97533
  9.8       4.027385   15.66173
  9.8       4.020661   14.16963
  9.8       4.013688   14.12033
  9.8       4.006768   14.91488
  9.8       3.999724   16.60150
  9.8       3.992701   15.97565
  9.8       3.985614   16.04472
  9.8       3.978335   15.70304
  9.8       3.971203   13.47892
  9.8       3.963821   15.43391
  9.8       3.956526   17.42032
  9.8       3.949099   15.89053
  9.8       3.941606   16.72906
  9.8       3.934074   15.48657
  9.8       3.926384   16.18301
  9.8       3.918748   16.23183
  9.8       3.910893   18.35222
  9.8       3.903118   16.88272
  9.8       3.895217   16.42540
  9.8       3.887218   16.40286
  9.8       3.879118   18.19894
  9.8       3.871072   17.25599
  9.8       3.862866   17.46016
  9.8       3.854561   20.67097
  9.8       3.846308   18.08658
  9.8       3.837862   17.22843
  9.8       3.829350   18.10854
  9.8       3.820831   18.00268
  9.8       3.812237   19.36453
  9.8       3.803363   18.07040
  9.8       3.794601   18.57184
  9.8       3.785834   19.99627
  9.8       3.776870   20.08619
  9.8       3.767806   21.25104
  9.8       3.758675   22.60631
  9.8       3.749442   21.65745
  9.8       3.740168   24.29119
  9.8       3.730792   27.18583
  9.8       3.721314   32.39318
  9.8       3.711674   33.87835
  9.8       3.702086   39.12357
  9.8       3.692302   45.01806
  9.8       3.682450   56.99919
  9.8       3.672556   80.39747
  9.8       3.662559  116.1040
  9.8       3.652459  168.1026
  9.8       3.642197  202.7216
  9.8       3.631891  221.2409
  9.8       3.621482  208.9697
  9.8       3.611065  173.6523
  9.8       3.600449  123.3060
  9.8       3.589730   73.85803
  9.8       3.578907   42.07643
  9.8       3.567920   30.59473
  9.8       3.556889   22.42599
  9.8       3.545813   20.06250
  9.8       3.534513   19.82442
  9.8       3.523169   19.58855
  9.8       3.511720   19.99296
  9.8       3.500167   22.95651
  9.8       3.488412   21.98041
  9.8       3.476708   26.26571
  9.8       3.464743   31.89476
  9.8       3.452613   40.08120
  9.8       3.440496   59.24464
  9.8       3.428215   90.20516
  9.8       3.415827   133.4667
  9.8       3.403237   172.0773
  9.8       3.390697   186.7548
  9.8       3.377797   167.2254
  9.8       3.364829   133.8793
  9.8       3.351873   85.87197
  9.8       3.338653   44.25630
  9.8       3.325326   21.51862
  9.8       3.311855   13.83701
  9.8       3.298217   11.32909
  9.8       3.284472    9.899862
  9.8       3.270678    8.393196
  9.8       3.256620    9.036337
  9.8       3.242415    6.810194
  9.8       3.228043    7.726495
  9.8       3.213622    8.050158
  9.8       3.199033    7.232746
  9.8       3.184140    6.926007
  9.8       3.169198    7.212122
  9.8       3.154146    7.103752
  9.8       3.138986    6.389639
  9.8       3.123460    6.701107
  9.8       3.107825    6.848662
  9.8       3.092139    6.651784
  9.8       3.076246    6.549922
  9.8       3.060144    6.297863
  9.8       3.043774    6.200009
  9.8       3.027352    6.695901
  9.8       3.010722    6.007832
  9.8       2.993980    5.565634
  9.8       2.976930    5.934937
  9.8       2.959769    6.323669
  9.8       2.942398    5.917652
  9.8       2.924816    5.991118
  9.8       2.907022    5.485998
  9.8       2.889118    6.266062
  9.8       2.870902    6.840102
  9.8       2.852475    6.551537
  9.8       2.833935    6.189671
  9.8       2.815242    6.094196
  9.8       2.796178    5.563956
  9.8       2.776901    6.261526
  9.8       2.757411    5.563900
  9.8       2.737866    6.045662
  9.8       2.717949    5.609184
  9.8       2.697718    6.125995
  9.8       2.677432    6.366701
  9.8       2.656872    6.955690
  9.8       2.635997    6.243756
  9.8       2.614966    5.963200
  9.8       2.593620    6.510449
  9.8       2.571998    5.937605
  9.8       2.550160    5.867911
  9.8       2.528065    6.813024
  9.8       2.505754    6.906802
  9.8       2.483024    6.114377
  9.8       2.460117    6.381975
  9.8       2.437012    6.410837
  9.8       2.413528    6.583186
  9.8       2.389767    7.550380
  9.8       2.365745    6.506551
  9.8       2.341403    6.147377
  9.8       2.316902    6.369346
  9.8       2.291860    7.014554
  9.8       2.266615    7.391819
  9.8       2.241091    7.072209
  9.8       2.215143    7.342660
  9.8       2.188974    7.623627
  9.8       2.162543    7.877780
  9.8       2.135626    9.085145
  9.8       2.108445    9.419054
  9.8       2.080941   10.04331
  9.8       2.053010   11.01649
  9.8       2.024796   12.99724
  9.8       1.996214   16.54209
  9.8       1.967204   25.03415
  9.8       1.937868   38.23127
  9.8       1.908043   50.39597
  9.8       1.877951   46.90106
  9.8       1.847429   36.29127
  9.8       1.816476   21.58598
  9.8       1.785254   10.03826
  9.8       1.753378    6.486854
  9.8       1.721292    5.584267
  9.8       1.688612    5.181929
  9.8       1.655600    5.186859
  9.8       1.622111    4.550738
  9.8       1.588188    5.450967
  9.8       1.553771    4.599410
  9.8       1.518874    4.914344
  9.8       1.483644    4.834051
  9.8       1.447711    4.632485
  9.8       1.411401    4.944443
  9.8       1.374549    4.757728
  9.8       1.337259    5.161478
  9.8       1.299486    5.205833
  9.8       1.261006    5.006821
  9.8       1.221982    5.074521
  9.8       1.182577    5.459484
  9.8       1.142403    5.504247
  9.8       1.101803    5.270819
  9.8       1.060656    5.821992
  9.8       1.018857    5.832222
  9.8       0.9765097   6.322558
  9.8       0.9334499   5.869833
  9.8       0.8897513   5.974637
  9.8       0.8455467   6.547188
  9.8       0.8004779   6.408587
  9.8       0.7549614   7.008270
  9.8       0.7086385   7.325768
  9.8       0.6616575   7.476585
  9.8       0.6140624   8.120758
  9.8       0.5656579   8.643085
  9.8       0.5164284   9.711713
  9.8       0.4664919  10.67744
  9.8       0.4159526  12.06254
  9.8       0.3644805  14.14963
  9.8       0.3123441  16.31856
  9.8       0.2592869  20.67299
  9.8       0.2054582  27.16422
  9.8       0.1506925  45.92271
  9.8       0.0952131  91.27753
  9.8       0.0387486 156.7097
  9.8      -0.0185967 191.3432
  9.8      -0.0769295 148.0339
  9.8      -0.1360859  72.98107
  9.8      -0.1961862  25.72695
  9.8      -0.2572178   9.348216
  9.8      -0.3194071   6.309475
  9.8      -0.3824710   4.898324
  9.8      -0.4466952   3.833865
  9.8      -0.5119156   3.547751
  9.8      -0.5781801   3.020418
  9.8      -0.6456088   2.566885
  9.8      -0.7141906   2.347108
  9.8      -0.7838802   2.008209
  9.8      -0.8546192   1.899194
  9.8      -0.9268476   1.678506
  9.8      -1.000128    1.510962
  9.8      -1.074689    1.400596
  9.8      -1.150565    1.664804
  9.8      -1.227831    1.529224
  9.8      -1.306321    1.261623
  9.8      -1.386359    1.330871
  9.8      -1.467731    1.313607
  9.8      -1.550428    1.208422
  9.8      -1.634784    1.112177
  9.8      -1.720600    1.267906
  9.8      -1.807960    1.150766
  9.8      -1.896986    1.506813
  9.8      -1.987572    1.763742
  9.8      -2.079827    1.494860
  9.8      -2.173743    1.317708
  9.8      -2.269559    1.126114
  9.8      -2.367040    1.025651
  9.8      -2.466306    1.055459
  9.8      -2.567577    0.9254466
  9.8      -2.670865    0.8609990
  9.8      -2.776030    0.9831930
  9.8      -2.883218    0.7426095
  9.8      -2.992409    0.7283952
  9.8      -3.103950    0.6359612
  9.8      -3.217500    0.6449962
  9.8      -3.333395    0.5486568
  9.8      -3.451640    0.7267718
  9.8      -3.572236    0.6077750
  9.8      -3.695176    0.5996463
  9.8      -3.820583    0.5528631
  9.8      -3.948676    0.5531045
  9.8      -4.079350    0.4936528
  9.8      -4.212827    0.5381320
  9.8      -4.348989    0.5092853
  9.8      -4.488079    0.4673776
  9.8      -4.629961    0.5225547
  9.8      -4.774997    0.4915560
  9.8      -4.923179    0.4648329
  9.8      -5.074502    0.3780765
  9.8      -5.229207    0.4295792
  9.8      -5.387280    0.3773871
  9.8      -5.548725    0.3512051
  9.8      -5.713785    0.4228275
  9.8      -5.882543    0.4393891
  9.8      -6.055143    0.4015889
  9.8      -6.231691    0.3185084
  9.8      -6.412182    0.3569935
  9.8      -6.596849    0.3410555
  9.8      -6.785798    0.2999622
  9.8      -6.979273    0.3582125
  9.8      -7.177262    0.3352533
  9.8      -7.379770    0.3561304
  9.8      -7.587361    0.3267700
  9.8      -7.799824    0.3714610
  9.8      -8.017604    0.3314683
  9.8      -8.240588    0.3300250
  9.8      -8.469006    0.3368709
  9.8      -8.703202    0.3307227
  9.8      -8.943295    0.2943659
  9.8      -9.189396    0.2280839
  9.8      -9.441851    0.2223855
  9.8      -9.700890    0.2691108
  9.8      -9.966393    0.2659184
  9.8      -10.23906    0.1952180
  9.8      -10.51888    0.2247531
  9.8      -10.80609    0.2290012
  9.8      -11.10115    0.2000297
  9.8      -11.40406    0.2250546
  9.8      -11.71528    0.1926283
  9.8      -12.03515    0.1587124
  9.8      -12.36380    0.1676262
  9.8      -12.70190    0.1472920
  9.8      -13.04948    0.1696265
  9.8      -13.40697    0.1608268
  9.8      -13.77485    0.1536588
  9.8      -14.15357    0.1696930
  9.8      -14.54338    0.1474613
  9.8      -14.94473    0.1431768
  9.8      -15.35819    0.1249615
  9.8      -15.78423    0.1178591
  9.8      -16.22320    0.1363188
  9.8      -16.67592    0.1300657
  9.8      -17.14283    0.1209258
  9.8      -17.62452    0.1292145
  9.8      -18.12169    0.1164518
  9.8      -18.63479    0.1137223
  9.8      -19.16488    0.0900822
  9.8      -19.71241    0.0933465
  9.9       4.779610   66.08169
  9.9       4.778393   57.68210
  9.9       4.777196   47.87743
  9.9       4.775998   52.08899
  9.9       4.774719   62.10977
  9.9       4.773580   48.76232
  9.9       4.772300   55.81519
  9.9       4.771019   51.25915
  9.9       4.769797   43.86253
  9.9       4.768536   69.47060
  9.9       4.767313   53.49830
  9.9       4.766088   51.15166
  9.9       4.764745   47.40780
  9.9       4.763599   70.47539
  9.9       4.762314   69.48945
  9.9       4.761027   49.63494
  9.9       4.759800   61.96749
  9.9       4.758431   55.47440
  9.9       4.757143   42.12845
  9.9       4.755913   52.96377
  9.9       4.754623   56.86015
  9.9       4.753333   49.80736
  9.9       4.751960   44.16815
  9.9       4.750728   58.20139
  9.9       4.749354   60.65981
  9.9       4.748061   60.41410
  9.9       4.746604   43.45270
  9.9       4.745369   41.94495
  9.9       4.743992   47.74106
  9.9       4.742674   49.52684
  9.9       4.741236   59.18896
  9.9       4.739917   47.81224
  9.9       4.738537   50.22551
  9.9       4.737216   51.31886
  9.9       4.735835   54.34315
  9.9       4.734393   50.25448
  9.9       4.733070   46.84000
  9.9       4.731686   44.73064
  9.9       4.730280   41.36362
  9.9       4.728895   46.26360
  9.9       4.727427   45.44075
  9.9       4.726100   47.13938
  9.9       4.724631   45.69201
  9.9       4.723221   46.74904
  9.9       4.721751   55.86595
  9.9       4.720279   55.63390
  9.9       4.718889   52.94199
  9.9       4.717415   47.81753
  9.9       4.715941   50.06058
  9.9       4.714527   37.08520
  9.9       4.713051   39.95789
  9.9       4.711552   40.99599
  9.9       4.710075   51.03141
  9.9       4.708657   47.82926
  9.9       4.707178   36.91301
  9.9       4.705616   43.27937
  9.9       4.704136   49.59291
  9.9       4.702632   39.97768
  9.9       4.701068   52.68886
  9.9       4.699503   43.72241
  9.9       4.697937   39.47458
  9.9       4.696370   33.52753
  9.9       4.694862   46.04977
  9.9       4.693353   47.57495
  9.9       4.691783   47.37402
  9.9       4.690213   41.49026
  9.9       4.688642   43.01270
  9.9       4.687070   42.26719
  9.9       4.685557   37.03769
  9.9       4.683900   42.46766
  9.9       4.682385   49.52115
  9.9       4.680727   39.33707
  9.9       4.679127   45.23757
  9.9       4.677467   48.34027
  9.9       4.675807   42.66393
  9.9       4.674204   41.93687
  9.9       4.672624   40.67395
  9.9       4.670960   44.27979
  9.9       4.669272   37.63691
  9.9       4.667607   43.90000
  9.9       4.665940   43.71177
  9.9       4.664333   48.30127
  9.9       4.662581   44.92171
  9.9       4.660912   42.62388
  9.9       4.659159   38.77196
  9.9       4.657404   47.47276
  9.9       4.655708   37.39828
  9.9       4.654036   42.92628
  9.9       4.652338   51.49430
  9.9       4.650580   51.27101
  9.9       4.648880   45.43323
  9.9       4.647120   34.56234
  9.9       4.645419   47.56984
  9.9       4.643598   48.37084
  9.9       4.641810   44.14599
  9.9       4.640046   46.95077
  9.9       4.638257   52.21536
  9.9       4.636348   56.44259
  9.9       4.634556   50.27988
  9.9       4.632848   53.00533
  9.9       4.630996   48.37495
  9.9       4.629142   46.70306
  9.9       4.627347   56.66928
  9.9       4.625491   52.56233
  9.9       4.623634   53.77141
  9.9       4.621836   70.26428
  9.9       4.619893   56.62872
  9.9       4.618033   73.43499
  9.9       4.616148   81.12785
  9.9       4.614261   90.62914
  9.9       4.612254   96.30428
  9.9       4.610450  112.1689
  9.9       4.608500  110.2803
  9.9       4.606610  116.7093
  9.9       4.604718  132.2637
  9.9       4.602706  127.1027
  9.9       4.600727  121.5268
  9.9       4.598773  147.7195
  9.9       4.596791  148.8615
  9.9       4.594750  129.7818
  9.9       4.592852  121.6019
  9.9       4.590808  108.1490
  9.9       4.588763  102.7892
  9.9       4.586862   93.06666
  9.9       4.584815   82.10966
  9.9       4.582826   72.99763
  9.9       4.580691   68.75086
  9.9       4.578641   53.27991
  9.9       4.576564   63.38726
  9.9       4.574512   62.67181
  9.9       4.572372   56.40494
  9.9       4.570377   59.55294
  9.9       4.568236   57.16502
  9.9       4.566093   62.38474
  9.9       4.564069   69.65361
  9.9       4.561924   65.57713
  9.9       4.559779   78.99916
  9.9       4.557546   88.15647
  9.9       4.555398   91.87405
  9.9       4.553282  114.4182
  9.9       4.551131  114.7118
  9.9       4.548894  134.9088
  9.9       4.546655  131.4573
  9.9       4.544475  149.7759
  9.9       4.542234  173.9342
  9.9       4.539992  175.5266
  9.9       4.537722  191.7884
  9.9       4.535537  205.1327
  9.9       4.533350  227.0043
  9.9       4.531017  203.6302
  9.9       4.528769  215.9417
  9.9       4.526494  221.1463
  9.9       4.524157  198.8789
  9.9       4.521878  182.9632
  9.9       4.519392  173.3087
  9.9       4.517111  130.2328
  9.9       4.514770  117.8761
  9.9       4.512400   94.68914
  9.9       4.510115   70.96694
  9.9       4.507683   62.41212
  9.9       4.505396   53.56486
  9.9       4.502961   47.01933
  9.9       4.500438   40.16474
  9.9       4.498060   45.11032
  9.9       4.495622   45.26302
  9.9       4.493154   39.59950
  9.9       4.490773   41.58233
  9.9       4.488243   34.18793
  9.9       4.485800   39.39914
  9.9       4.483240   33.50807
  9.9       4.480706   41.50891
  9.9       4.478231   34.60301
  9.9       4.475755   31.97864
  9.9       4.473217   29.37833
  9.9       4.470651   36.89552
  9.9       4.468051   38.79823
  9.9       4.465454   31.71692
  9.9       4.462852   32.25179
  9.9       4.460280   39.26788
  9.9       4.457647   33.30258
  9.9       4.455072   32.80454
  9.9       4.452349   33.99267
  9.9       4.449743   31.48413
  9.9       4.447017   30.33217
  9.9       4.444437   31.18128
  9.9       4.441708   36.31232
  9.9       4.438977   38.10769
  9.9       4.436305   33.67315
  9.9       4.433572   37.41404
  9.9       4.430720   40.79261
  9.9       4.428044   38.98370
  9.9       4.425218   37.83187
  9.9       4.422480   31.90502
  9.9       4.419711   38.09913
  9.9       4.416940   36.64921
  9.9       4.414020   34.58309
  9.9       4.411159   32.53621
  9.9       4.408324   37.98057
  9.9       4.405459   36.86444
  9.9       4.402534   33.29218
  9.9       4.399666   37.42259
  9.9       4.396737   38.45907
  9.9       4.393777   44.64688
  9.9       4.390846   55.60860
  9.9       4.387972   58.64184
  9.9       4.384948   70.32034
  9.9       4.381894   89.62141
  9.9       4.378927   92.13878
  9.9       4.375958   91.09097
  9.9       4.372928   91.51762
  9.9       4.369956   73.25798
  9.9       4.366745   50.52976
  9.9       4.363681   43.34216
  9.9       4.360645   37.08811
  9.9       4.357578   32.61124
  9.9       4.354361   33.87028
  9.9       4.351201   36.53164
  9.9       4.348129   37.19335
  9.9       4.344906   32.52020
  9.9       4.341742   31.51923
  9.9       4.338575   33.85766
  9.9       4.335348   41.14162
  9.9       4.332089   35.16377
  9.9       4.328769   32.79857
  9.9       4.325596   34.80775
  9.9       4.322272   33.00731
  9.9       4.318917   33.64627
  9.9       4.315649   31.06457
  9.9       4.312380   35.70184
  9.9       4.308960   36.04919
  9.9       4.305538   33.22735
  9.9       4.302233   31.48278
  9.9       4.298808   27.92803
  9.9       4.295290   19.21521
  9.9       4.291921    0.2583296
  9.9       4.256448    0.7356968
  9.9       4.252787   17.07643
  9.9       4.249216   29.84891
  9.9       4.245552   33.55484
  9.9       4.241796   31.45729
  9.9       4.238128   28.18672
  9.9       4.234339   29.22659
  9.9       4.230486   27.65392
  9.9       4.226722   34.32613
  9.9       4.222896   32.27377
  9.9       4.219128   24.89149
  9.9       4.215327   39.33738
  9.9       4.211404   28.08040
  9.9       4.207631   35.48663
  9.9       4.203764   31.88186
  9.9       4.199744   31.03212
  9.9       4.195723   35.14702
  9.9       4.191818   29.35661
  9.9       4.187792   33.43445
  9.9       4.183825   34.58549
  9.9       4.179763   32.63547
  9.9       4.175731   37.06607
  9.9       4.171634   32.72129
  9.9       4.167598   35.36581
  9.9       4.163437   35.60615
  9.9       4.159214   37.77427
  9.9       4.155200   39.49120
  9.9       4.150972   35.45542
  9.9       4.146711   36.74060
  9.9       4.142539   34.86086
  9.9       4.138273   30.49361
  9.9       4.133945   28.87316
  9.9       4.129676   28.50886
  9.9       4.125311   29.17449
  9.9       4.121037   31.67108
  9.9       4.116609   27.83948
  9.9       4.112238   29.10112
  9.9       4.107773   27.53390
  9.9       4.103305   28.58120
  9.9       4.098868   26.63474
  9.9       4.094397   28.66185
  9.9       4.089890   24.96465
  9.9       4.085261   26.58542
  9.9       4.080782   27.40996
  9.9       4.076117   27.06394
  9.9       4.071541   24.99088
  9.9       4.066811   29.43929
  9.9       4.062138   25.09265
  9.9       4.057463   24.95225
  9.9       4.052692   24.06037
  9.9       4.047953   20.74786
  9.9       4.043238   22.30400
  9.9       4.038367   20.88451
  9.9       4.033528   22.23705
  9.9       4.028653   25.58344
  9.9       4.023775   23.43998
  9.9       4.018896   28.90819
  9.9       4.013920   24.43245
  9.9       4.008942   21.61413
  9.9       4.003962   23.97771
  9.9       3.998885   22.42811
  9.9       3.993900   22.47578
  9.9       3.988666   23.04539
  9.9       3.983582   23.60781
  9.9       3.978403   24.33525
  9.9       3.973374   21.45002
  9.9       3.968130   27.98051
  9.9       3.962849   25.10506
  9.9       3.957566   21.08116
  9.9       3.952280   20.79161
  9.9       3.946897   25.33875
  9.9       3.941546   26.35209
  9.9       3.936219   22.40920
  9.9       3.930734   21.29580
  9.9       3.925248   24.75449
  9.9       3.919852   22.99108
  9.9       3.914266   23.66133
  9.9       3.908771   22.72277
  9.9       3.903085   22.58928
  9.9       3.897585   24.82897
  9.9       3.891894   28.92757
  9.9       3.886200   21.88036
  9.9       3.880350   22.68323
  9.9       3.874710   23.63031
  9.9       3.868913   23.79737
  9.9       3.863114   23.19836
  9.9       3.857217   21.84672
  9.9       3.851317   24.73286
  9.9       3.845415   22.63659
  9.9       3.839415   23.09739
  9.9       3.833412   21.77422
  9.9       3.827406   27.23879
  9.9       3.821303   23.70912
  9.9       3.815197   25.89415
  9.9       3.808993   22.84617
  9.9       3.802845   24.00183
  9.9       3.796635   26.42822
  9.9       3.790422   24.56446
  9.9       3.784111   26.10907
  9.9       3.777702   26.93228
  9.9       3.771385   27.46566
  9.9       3.765029   28.82256
  9.9       3.758456   30.98780
  9.9       3.752034   30.66161
  9.9       3.745479   29.65739
  9.9       3.738896   30.15158
  9.9       3.732334   32.78820
  9.9       3.725614   35.65785
  9.9       3.719046   39.41994
  9.9       3.712164   40.09956
  9.9       3.705339   44.57051
  9.9       3.698570   44.94560
  9.9       3.691738   48.93906
  9.9       3.684808   59.18493
  9.9       3.677933   63.93065
  9.9       3.670900   80.17664
  9.9       3.663863  107.5806
  9.9       3.656787  139.0285
  9.9       3.649589  190.2762
  9.9       3.642446  248.3074
  9.9       3.635264  304.7355
  9.9       3.627922  329.9729
  9.9       3.620637  320.8357
  9.9       3.613385  287.2763
  9.9       3.605937  239.3585
  9.9       3.598389  174.9778
  9.9       3.590934  115.0801
  9.9       3.583438   78.19356
  9.9       3.575843   52.30289
  9.9       3.568184   43.01614
  9.9       3.560426   36.84899
  9.9       3.552723   30.29982
  9.9       3.544897   27.82425
  9.9       3.537090   26.96507
  9.9       3.529183   26.56569
  9.9       3.521250   27.17681
  9.9       3.513239   27.00056
  9.9       3.505164   28.81226
  9.9       3.497145   28.18617
  9.9       3.488966   26.91285
  9.9       3.480746   30.30918
  9.9       3.472462   32.79935
  9.9       3.464077   35.89614
  9.9       3.455807   37.35854
  9.9       3.447356   43.54436
  9.9       3.438921   53.31235
  9.9       3.430386   73.04136
  9.9       3.421690  101.0848
  9.9       3.413087  140.8687
  9.9       3.404345  190.1127
  9.9       3.395539  226.8399
  9.9       3.386849  247.0660
  9.9       3.377840  243.5153
  9.9       3.368924  219.1475
  9.9       3.359967  169.5465
  9.9       3.350847  116.6801
  9.9       3.341686   73.66253
  9.9       3.332520   43.59016
  9.9       3.323291   31.67983
  9.9       3.313921   25.64894
  9.9       3.304645   23.39159
  9.9       3.295109   18.34149
  9.9       3.285568   18.21660
  9.9       3.276142   15.21615
  9.9       3.266397   14.83564
  9.9       3.256706   14.00189
  9.9       3.246854   14.26931
  9.9       3.237056   15.43488
  9.9       3.227097   13.98392
  9.9       3.217192   14.95566
  9.9       3.207086   13.87969
  9.9       3.197014   14.04692
  9.9       3.186800   14.82116
  9.9       3.176581   15.32407
  9.9       3.166260   14.61539
  9.9       3.155834   14.94010
  9.9       3.145306   13.64863
  9.9       3.134773   13.30034
  9.9       3.124175   10.44848
  9.9       3.113434   14.19280
  9.9       3.102689   14.17505
  9.9       3.091780   14.48393
  9.9       3.080827   13.32501
  9.9       3.069928   13.71443
  9.9       3.058768   12.33521
  9.9       3.047542   12.72440
  9.9       3.036370   12.31767
  9.9       3.024996   13.17015
  9.9       3.013616   12.84217
  9.9       3.002072   13.52254
  9.9       2.990543   10.97022
  9.9       2.978850   11.65259
  9.9       2.967092   14.21463
  9.9       2.955249   11.63449
  9.9       2.943341   13.18930
  9.9       2.931328   12.35351
  9.9       2.919150   12.85081
  9.9       2.907086   12.39238
  9.9       2.894699   15.19601
  9.9       2.882425   13.64781
  9.9       2.869985   11.62222
  9.9       2.857441   12.17347
  9.9       2.844751   13.34799
  9.9       2.832095   14.22540
  9.9       2.819175   12.80470
  9.9       2.806267   12.70941
  9.9       2.793295   13.43292
  9.9       2.780116   13.67090
  9.9       2.766831   14.03869
  9.9       2.753601   11.00001
  9.9       2.740104   13.49767
  9.9       2.726601   12.14827
  9.9       2.712991   13.55541
  9.9       2.699235   11.90050
  9.9       2.685413   12.13112
  9.9       2.671543   13.12172
  9.9       2.657348   11.44137
  9.9       2.643265   12.98492
  9.9       2.628975   12.51197
  9.9       2.614619   11.73648
  9.9       2.600156   12.13658
  9.9       2.585485   13.13781
  9.9       2.570766   12.19134
  9.9       2.555940   13.17484
  9.9       2.541048   12.30013
  9.9       2.525948   11.02526
  9.9       2.510859   13.68872
  9.9       2.495442   13.46561
  9.9       2.480078   12.20839
  9.9       2.464486   11.99827
  9.9       2.448865   11.45035
  9.9       2.433016   11.47248
  9.9       2.417220   12.05130
  9.9       2.401113   11.51295
  9.9       2.384940   12.46480
  9.9       2.368616   13.23711
  9.9       2.352285   12.37492
  9.9       2.335582   11.20375
  9.9       2.318933   12.54966
  9.9       2.302073   12.44876
  9.9       2.285103   13.13329
  9.9       2.268126   12.50822
  9.9       2.250778   12.30396
  9.9       2.233379   12.10196
  9.9       2.215770   13.47224
  9.9       2.198152   13.26191
  9.9       2.180425   14.10015
  9.9       2.162385   13.58923
  9.9       2.144336   13.72265
  9.9       2.125974   15.21358
  9.9       2.107604   13.97928
  9.9       2.089022   15.91920
  9.9       2.070329   14.93377
  9.9       2.051382   16.07890
  9.9       2.032306   17.90296
  9.9       2.013078   17.42966
  9.9       1.993798   21.50136
  9.9       1.974246   25.09388
  9.9       1.954583   34.12334
  9.9       1.934707   46.75245
  9.9       1.914676   57.56908
  9.9       1.894475   68.06598
  9.9       1.874060   65.78764
  9.9       1.853592   54.21143
  9.9       1.832749   36.65978
  9.9       1.811956   25.22106
  9.9       1.790786   17.17461
  9.9       1.769504   12.31090
  9.9       1.748067   10.26006
  9.9       1.726458    9.473971
  9.9       1.704590    9.513634
  9.9       1.682610    7.979895
  9.9       1.660355    8.469523
  9.9       1.637884    8.791377
  9.9       1.615257    7.772122
  9.9       1.592473    6.886650
  9.9       1.569457    7.597168
  9.9       1.546284    6.994828
  9.9       1.522792    6.705457
  9.9       1.499229    6.683371
  9.9       1.475362    6.251625
  9.9       1.451262    6.011316
  9.9       1.427005    6.980764
  9.9       1.402426    6.628222
  9.9       1.377733    6.353101
 10.5       5.039790   41.24302
 10.5       5.036765   52.94745
 10.5       5.033703   57.71821
 10.5       5.030674   54.41303
 10.5       5.027641   54.08039
 10.5       5.024548   54.99950
 10.5       5.021425   59.21678
 10.5       5.018327   54.73817
 10.5       5.015260   52.76515
 10.5       5.012071   47.15547
 10.5       5.008940   50.09678
 10.5       5.005747   50.59066
 10.5       5.002524   48.28208
 10.5       4.999300   53.93093
 10.5       4.996014   54.38436
 10.5       4.992785   48.56352
 10.5       4.989554   43.98024
 10.5       4.986174   45.63957
 10.5       4.982792   54.57901
 10.5       4.979467   51.56395
 10.5       4.976140   52.37985
 10.5       4.972810   61.48124
 10.5       4.969305   52.84769
 10.5       4.965824   56.23944
 10.5       4.962400   45.15212
 10.5       4.958974   51.11928
 10.5       4.955486   47.87293
 10.5       4.951821   49.38430
 10.5       4.948300   50.87510
 10.5       4.944777   45.53265
 10.5       4.941252   50.58691
 10.5       4.937636   49.55621
 10.5       4.933871   46.42527
 10.5       4.930250   42.98336
 10.5       4.926627   48.26386
 10.5       4.922854   48.98889
 10.5       4.919138   45.93177
 10.5       4.915360   49.72302
 10.5       4.911551   41.95781
 10.5       4.907887   46.73007
 10.5       4.903925   46.76096
 10.5       4.900049   46.78991
 10.5       4.896288   49.12403
 10.5       4.892319   45.20140
 10.5       4.888317   46.20792
 10.5       4.884342   36.85462
 10.5       4.880483   42.71640
 10.5       4.876413   46.58459
 10.5       4.872401   41.84142
 10.5       4.868297   46.91942
 10.5       4.864219   41.60590
 10.5       4.860110   41.95316
 10.5       4.855908   52.78921
 10.5       4.851793   48.45373
 10.5       4.847527   40.82128
 10.5       4.843317   42.66872
 10.5       4.839015   40.88168
 10.5       4.834800   47.47762
 10.5       4.830432   46.56765
 10.5       4.826033   46.55059
 10.5       4.821779   39.80093
 10.5       4.817314   41.56878
 10.5       4.812905   41.57837
 10.5       4.808404   49.32847
 10.5       4.803989   39.31109
 10.5       4.799422   37.91390
 10.5       4.794822   45.24472
 10.5       4.790278   38.51822
 10.5       4.785703   39.08891
 10.5       4.781003   40.19942
 10.5       4.776301   41.29267
 10.5       4.771626   39.65334
 10.5       4.766827   40.46083
 10.5       4.762025   43.93396
 10.5       4.757310   42.83484
 10.5       4.752412   45.18224
 10.5       4.747510   42.24684
 10.5       4.742695   45.34362
 10.5       4.737696   47.61776
 10.5       4.732694   38.54987
 10.5       4.727688   40.83462
 10.5       4.722680   43.59232
 10.5       4.717577   47.31553
 10.5       4.712411   47.23545
 10.5       4.707211   41.19703
 10.5       4.702157   43.12695
 10.5       4.696799   41.11108
 10.5       4.691588   50.05610
 10.5       4.686343   45.60188
 10.5       4.680943   48.39434
 10.5       4.675631   50.19370
 10.5       4.670224   45.35055
 10.5       4.664722   51.82978
 10.5       4.659216   51.22847
 10.5       4.653556   60.11118
 10.5       4.648044   57.15773
 10.5       4.642436   54.92597
 10.5       4.636792   63.80960
 10.5       4.631117   76.60691
 10.5       4.625374   88.99179
 10.5       4.619600  113.3733
 10.5       4.613759  138.2745
 10.5       4.607944  163.4647
 10.5       4.601943  182.6449
 10.5       4.595970  195.9460
 10.5       4.590021  198.1505
 10.5       4.584007  179.9615
 10.5       4.577958  155.0800
 10.5       4.571845  123.0312
 10.5       4.565635   94.55145
 10.5       4.559362   85.62399
 10.5       4.553204   86.83310
 10.5       4.546797  104.2416
 10.5       4.540538  115.9529
 10.5       4.534064  118.2915
 10.5       4.527552  119.3966
 10.5       4.521096  107.2881
 10.5       4.514575  108.2479
 10.5       4.507958   95.41594
 10.5       4.501303   68.33161
 10.5       4.494678   59.03211
 10.5       4.487862   46.83290
 10.5       4.481134   41.02360
 10.5       4.474216   37.53914
 10.5       4.467293   37.81154
 10.5       4.460366   43.41175
 10.5       4.453308   42.89948
 10.5       4.446279   41.48655
 10.5       4.439211   38.47374
 10.5       4.431926   37.10944
 10.5       4.424696   35.23218
 10.5       4.417487   33.73219
 10.5       4.410154   36.43689
 10.5       4.402723   36.84830
 10.5       4.395287   29.69765
 10.5       4.387812   33.38576
 10.5       4.380178   37.85942
 10.5       4.372540   32.86982
 10.5       4.364956   31.61585
 10.5       4.357060   33.02018
 10.5       4.349279   31.94309
 10.5       4.341433   34.45607
 10.5       4.333547   33.54068
 10.5       4.325562   37.27644
 10.5       4.317417   38.56969
 10.5       4.309362   32.91131
 10.5       4.301172   31.71335
 10.5       4.292883   29.75677
 10.5       4.284529   31.51892
 10.5       4.276169   32.48811
 10.5       4.267709   36.91927
 10.5       4.259209   30.16956
 10.5       4.250608   32.60752
 10.5       4.241943   38.40098
 10.5       4.233177   32.96384
 10.5       4.224370   32.69755
 10.5       4.215557   34.01860
 10.5       4.206584   29.31035
 10.5       4.197570   35.02822
 10.5       4.188395   33.19543
 10.5       4.179334   31.94778
 10.5       4.170052   37.77444
 10.5       4.160669   36.64104
 10.5       4.151399   40.83128
 10.5       4.141908   40.62975
 10.5       4.132376   39.49088
 10.5       4.122682   33.98623
 10.5       4.112946   35.54725
 10.5       4.103144   33.94598
 10.5       4.093264   33.14484
 10.5       4.083258   31.32713
 10.5       4.073246   35.13889
 10.5       4.063095   30.55138
 10.5       4.052938   29.41800
 10.5       4.042582   30.65918
 10.5       4.032219   29.90759
 10.5       4.021694   27.82355
 10.5       4.011185   31.45896
 10.5       4.000454   33.11037
 10.5       3.989680   29.49723
 10.5       3.978899   30.18822
 10.5       3.967918   28.87691
 10.5       3.956833   28.62843
 10.5       3.945742   28.03692
 10.5       3.934546   26.76941
 10.5       3.923247   30.03819
 10.5       3.911844   30.78479
 10.5       3.900181   30.29465
 10.5       3.888629   31.68024
 10.5       3.876914   33.14765
 10.5       3.865094   33.28922
 10.5       3.853170   33.21073
 10.5       3.841200   33.76744
 10.5       3.828969   35.99480
 10.5       3.816730   35.25864
 10.5       3.804230   37.53000
 10.5       3.791840   39.65505
 10.5       3.779286   43.56629
 10.5       3.766529   43.67945
 10.5       3.753764   44.98316
 10.5       3.740796   49.22401
 10.5       3.727782   50.34717
 10.5       3.714444   59.98640
 10.5       3.701218   66.65643
 10.5       3.687826   89.97359
 10.5       3.674229  118.9025
 10.5       3.660744  179.3914
 10.5       3.646777  229.7637
 10.5       3.632920  261.1853
 10.5       3.618897  260.6913
 10.5       3.604669  232.8517
 10.5       3.590394  178.2484
 10.5       3.575951   123.3941
 10.5       3.561362   85.32597
 10.5       3.546606   61.24688
 10.5       3.531803   48.96921
 10.5       3.516792   49.70303
 10.5       3.501614   49.57306
 10.5       3.486388   56.46687
 10.5       3.470955   66.95322
 10.5       3.455353   90.77676
 10.5       3.439703  148.7713
 10.5       3.423845  234.3941
 10.5       3.407720  295.9505
 10.5       3.391485  329.0487
 10.5       3.375261  287.3186
 10.5       3.358769  205.3723
 10.5       3.342009  114.0827
 10.5       3.325198   50.52380
 10.5       3.308278   25.35470
 10.5       3.291049   19.07255
 10.5       3.273650   14.97592
 10.5       3.256260   13.51409
 10.5       3.238541   14.03206
 10.5       3.220672   13.24900
 10.5       3.202692   12.47970
 10.5       3.184501   15.65538
 10.5       3.166159   14.24842
 10.5       3.147486   16.44568
 10.5       3.128822   13.21554
 10.5       3.109786   13.68970
 10.5       3.090639   12.41691
 10.5       3.071339   12.29145
 10.5       3.051708   14.06387
 10.5       3.032024   13.59721
 10.5       3.012146   14.03537
 10.5       2.991977   14.14561
 10.5       2.971613   12.93321
 10.5       2.951036   14.35355
 10.5       2.930126   14.38992
 10.5       2.909222   16.00592
 10.5       2.888045   12.34660
 10.5       2.866510   13.64838
 10.5       2.844964   12.85710
 10.5       2.823101   12.89747
 10.5       2.800862   13.85906
 10.5       2.778569   13.65582
 10.5       2.755959   13.85058
 10.5       2.733133   13.87143
 10.5       2.710031   14.55388
 10.5       2.686730   13.63202
 10.5       2.663094   15.16500
 10.5       2.639199   14.14477
 10.5       2.615087   15.10532
 10.5       2.590757   12.89731
 10.5       2.566108   13.27597
 10.5       2.541139   13.74700
 10.5       2.516053   16.38734
 10.5       2.490546   14.25083
 10.5       2.464879   16.77410
 10.5       2.438832   15.06764
 10.5       2.412463   16.25998
 10.5       2.385934   16.12751
 10.5       2.358921   17.03955
 10.5       2.331688   17.78782
 10.5       2.304192   18.47014
 10.5       2.276313   19.54715
 10.5       2.248171   19.64409
 10.5       2.219704   20.67751
 10.5       2.190853   23.67963
 10.5       2.161738   25.47001
 10.5       2.132297   28.12548
 10.5       2.102532   30.33009
 10.5       2.072338   38.15331
 10.5       2.041817   47.42278
 10.5       2.010971   73.47379
 10.5       1.979694  128.5132
 10.5       1.948151  177.4850
 10.5       1.916160  190.9000
 10.5       1.883798  147.0553
 10.5       1.851004   81.55167
 10.5       1.817941   33.91444
 10.5       1.784446   15.91777
 10.5       1.750459   12.15328
 10.5       1.716097   10.48349
 10.5       1.681346    9.586164
 10.5       1.646220    9.615640
 10.5       1.610556    9.033183
 10.5       1.574559    9.596185
 10.5       1.537964    9.444122
 10.5       1.501052   10.05402
 10.5       1.463584    9.145560
 10.5       1.425739    9.942753
 10.5       1.387352    8.954159
 10.5       1.348586    9.796177
 10.5       1.309218   10.87507
 10.5       1.269410   10.54652
 10.5       1.229119   11.30020
 10.5       1.188283    9.844917
 10.5       1.146842   11.29391
 10.5       1.105019   11.57678
 10.5       1.062546   11.09811
 10.5       1.019630   11.93563
 10.5       0.9760625  11.31308
 10.5       0.9318423  11.02225
 10.5       0.8872824  12.27847
 10.5       0.8419639  12.99221
 10.5       0.7959908  14.01832
 10.5       0.7495717  16.49685
 10.5       0.7025111  16.00852
 10.5       0.6546743  17.13307
 10.5       0.6062850  19.01526
 10.5       0.5572970  21.41573
 10.5       0.5076045  24.10682
 10.5       0.4572384  29.93710
 10.5       0.4060610  36.82831
 10.5       0.3543872  42.88460
 10.5       0.3018865  51.58700
 10.5       0.2486179  79.43893
 10.5       0.1947452 153.1715
 10.5       0.1399974 297.3115
 10.5       0.0845843 394.9627
 10.5       0.0282347 342.5885
 10.5      -0.0287219 197.6579
 10.5      -0.0864979  70.06890
 10.5      -0.1452132  20.82430
 10.5      -0.2047035   8.743220
 10.5      -0.2651219   5.619157
 10.5      -0.3264230   3.810582
 10.5      -0.3885614   3.160705
 10.5      -0.4515249   2.912867
 10.5      -0.5155862   2.531790
 10.5      -0.5805343   3.045037
 10.5      -0.6463702   3.136056
 10.5      -0.7131881   2.880209
 10.5      -0.7810150   2.555848
 10.5      -0.8499455   2.684619
 10.5      -0.9197553   2.626430
 10.5      -0.9907902   2.030202
 10.5      -1.062813    2.636781
 10.5      -1.135944    2.631844
 10.5      -1.210305    2.643431
 10.5      -1.285657    2.451024
 10.5      -1.362228    2.779686
 10.5      -1.440126    2.654981
 10.5      -1.519020    2.613941
 10.5      -1.599256    2.128565
 10.5      -1.680824    2.736451
 10.5      -1.763606    3.078316
 10.5      -1.847733    3.060089
 10.5      -1.933078    3.115975
 10.5      -2.019975    2.699572
 10.5      -2.108329    2.584190
 10.5      -2.198012    2.286945
 10.5      -2.289253    2.263950
 10.5      -2.381825    2.419637
 10.5      -2.476077    1.622809
 10.5      -2.571891    1.782388
 10.5      -2.669257    1.386681
 10.5      -2.768188    1.479462
 10.5      -2.868915    1.733097
 10.5      -2.971296    1.878176
 10.5      -3.075594    1.650862
 10.5      -3.181442    1.502674
 10.5      -3.289201    1.323458
 10.5      -3.398850    0.8826765
 10.5      -3.510413    0.9359589
 10.5      -3.623979    0.7963680
 10.5      -3.739453    0.8155631
 10.5      -3.857052    0.8229375
 10.5      -3.976781    0.9360947
 10.5      -4.098641    0.6373925
 10.5      -4.222732    0.6773548
 10.5      -4.348959    0.6853802
 10.5      -4.477543    0.6235452
 10.5      -4.608603    0.8357652
 10.5      -4.742005    0.6583342
 10.5      -4.877889    0.5713362
 10.5      -5.016347    0.6343474
 10.5      -5.157393    0.6676943
 10.5      -5.301028    0.6463793
 10.5      -5.447475    0.6168673
 10.5      -5.596845    0.6819327
 10.5      -5.748914    0.5686272
 10.5      -5.904022    0.6561813
 10.5      -6.062173    0.7400900
 10.5      -6.223480    0.7020955
 10.5      -6.387936    0.6033319
 10.5      -6.555674    0.7204210
 10.5      -6.726668    0.7062067
 10.5      -6.901280    0.6120360
 10.5      -7.079396    0.6426472
 10.5      -7.261118    0.7766542
 10.5      -7.446571    0.6649553
 10.5      -7.635860    0.5641008
 10.5      -7.829226    0.5393711
 10.5      -8.026547    0.5668809
 10.5      -8.228167    0.5298607
 10.5      -8.433969    0.5743489
 10.5      -8.644079    0.4896937
 10.5      -8.858944    0.5917268
 10.5      -9.078338    0.5443335
 10.5      -9.302607    0.5042855
 10.5      -9.531866    0.4988963
 10.5      -9.766113    0.3632916
 10.5      -10.00569    0.3924235
 10.5      -10.25073    0.3578032
 10.5      -10.50121    0.3041909
 10.5      -10.75759    0.3320445
 10.5      -11.01966    0.2664013
 10.5      -11.28798    0.3171210
 10.5      -11.56255    0.2589630
 10.5      -11.84361    0.2529643
 10.5      -12.13138    0.3132361
 10.5      -12.42598    0.2584795
 10.5      -12.72788    0.2144985
 10.5      -13.03706    0.2504262
 10.5      -13.35365    0.2283683
 10.5      -13.67834    0.2267324
 10.5      -14.01101    0.2021147
 10.5      -14.35213    0.1896878
 10.5      -14.70192    0.2683842
 10.5      -15.06061    0.2722571
 10.5      -15.42868    0.1861020
 10.5      -15.80622    0.2082196
 10.5      -16.19373    0.2159478
 10.5      -16.59150    0.1720971
 10.5      -16.99994    0.1893141
 10.5      -17.41958    0.1933761
 10.5      -17.85045    0.1793976
 10.5      -18.29322    0.1602622
 10.5      -18.74826    0.1586955
 10.5      -19.21614    0.1678865
 10.5      -19.69720    0.1658764
 10.5      -20.19215    0.1382106
 10.5      -20.70122    0.2213716
 10.5      -21.22520    0.1691581
 10.5      -21.76458    0.1666447
 10.5      -22.32005    0.1549722
 10.5      -22.89219    0.1238840
 10.5      -23.48157    0.1502709
 10.5      -24.08924    0.1624373
 10.5      -24.71556    0.1151176
 10.5      -25.36156    0.0939815
 10.5      -26.02807    0.1157498
 10.5      -26.71590    0.1139786
 10.5      -27.42585    0.1157269
 10.5      -28.15922    0.1051440
 10.5      -28.91669    0.1151008
 10.5      -29.69956    0.1032811
 10.5      -30.50922    0.0889528
 10.5      -31.34649    0.0890040
 10.5      -32.21276    0.0860015
 10.5      -33.10943    0.0929210
 10.5      -34.03814    0.1087404
 10.5      -35.00006    0.0800149
 10.5      -35.99729    0.0797125
 10.5      -37.03123    0.0683152
 10.5      -38.10387    0.0940494
 10.5      -39.21730    0.0928548
 10.5      -40.37352    0.0730416
 10.5      -41.57476    0.0786750
 10.5      -42.82347    0.0665836
 10.5      -44.12234    0.0572115
 10.9       4.811079   55.58635
 10.9       4.806351   61.34451
 10.9       4.801589   58.21302
 10.9       4.796857   58.29447
 10.9       4.792150   63.05773
 10.9       4.787288   54.92074
 10.9       4.782457   60.14975
 10.9       4.777590   57.09452
 10.9       4.772722   57.16948
 10.9       4.767758   60.57217
 10.9       4.762885   59.52001
 10.9       4.757917   64.70248
 10.9       4.752946   59.74912
 10.9       4.747973   60.16099
 10.9       4.742906   64.89220
 10.9       4.737835   66.70276
 10.9       4.732702   62.07097
 10.9       4.727627   63.51824
 10.9       4.722456   68.12444
 10.9       4.717284   62.96576
 10.9       4.712108   69.03547
 10.9       4.706777   67.04799
 10.9       4.701657   69.11131
 10.9       4.696228   72.18048
 10.9       4.691009   72.25213
 10.9       4.685575   83.99553
 10.9       4.680351   75.76778
 10.9       4.674878   82.98798
 10.9       4.669437   88.90191
 10.9       4.663959   92.86274
 10.9       4.658538   96.11582
 10.9       4.653055  103.0625
 10.9       4.647476  105.6727
 10.9       4.641894  117.0459
 10.9       4.636310  126.6727
 10.9       4.630630  144.2456
 10.9       4.625040  172.7345
 10.9       4.619354  206.4326
 10.9       4.613512  250.7461
 10.9       4.607727  299.8239
 10.9       4.601998  323.7961
 10.9       4.596208  304.8773
 10.9       4.590261  291.1139
 10.9       4.584431  250.0395
 10.9       4.578479  213.0859
 10.9       4.572643  179.0712
 10.9       4.566556  164.1290
 10.9       4.560561  164.5322
 10.9       4.554469  196.3285
 10.9       4.548374  232.9392
 10.9       4.542276  251.8279
 10.9       4.536140  262.5295
 10.9       4.529942  279.4609
 10.9       4.523742  240.8464
 10.9       4.517443  210.8721
 10.9       4.511237  176.3186
 10.9       4.504838  130.6624
 10.9       4.498436   97.87622
 10.9       4.492127   78.22202
 10.9       4.485624   65.83775
 10.9       4.479119   61.72644
 10.9       4.472671   51.80005
 10.9       4.466100   49.93596
 10.9       4.459550   52.41234
 10.9       4.452878   49.64722
 10.9       4.446228   46.72924
 10.9       4.439515   47.00635
 10.9       4.432858   47.81779
 10.9       4.426043   45.22176
 10.9       4.419226   46.82996
 10.9       4.412405   43.64689
 10.9       4.405486   41.99154
 10.9       4.398563   43.58519
 10.9       4.391542   46.11390
 10.9       4.384518   40.49546
 10.9       4.377551   46.70089
 10.9       4.370425   43.10275
 10.9       4.363355   43.95694
 10.9       4.356067   43.87121
 10.9       4.348896   44.03634
 10.9       4.341661   44.86489
 10.9       4.334328   40.62442
 10.9       4.327050   41.37695
 10.9       4.319614   39.90633
 10.9       4.312175   39.75462
 10.9       4.304696   44.54303
 10.9       4.297250   45.81186
 10.9       4.289608   44.02191
 10.9       4.282059   42.41046
 10.9       4.274374   43.34692
 10.9       4.266626   47.17995
 10.9       4.258934   43.61798
 10.9       4.251180   42.66047
 10.9       4.243325   43.79784
 10.9       4.235467   42.07878
 10.9       4.227569   47.17137
 10.9       4.219511   43.93093
 10.9       4.211509   43.06519
 10.9       4.203444   40.48360
 10.9       4.195279   47.76752
 10.9       4.187169   43.77724
 10.9       4.178900   45.50192
 10.9       4.170687   45.30112
 10.9       4.162313   46.40986
 10.9       4.153996   42.22507
 10.9       4.145519   47.07183
 10.9       4.137097   44.50068
 10.9       4.128515   46.14718
 10.9       4.119929   48.61839
 10.9       4.111243   45.58675
 10.9       4.102612   43.21728
 10.9       4.093821   43.09143
 10.9       4.085145   44.27337
 10.9       4.076249   44.41216
 10.9       4.067348   45.09128
 10.9       4.058407   45.35423
 10.9       4.049461   44.06681
 10.9       4.040414   43.99467
 10.9       4.031244   41.93097
 10.9       4.022092   45.69287
 10.9       4.012838   48.75060
 10.9       4.003581   48.38200
 10.9       3.994161   48.08017
 10.9       3.984797   47.20107
 10.9       3.975272   48.63100
 10.9       3.965803   49.91374
 10.9       3.956172   48.71674
 10.9       3.946558   53.61477
 10.9       3.936821   50.34812
 10.9       3.926981   51.26846
 10.9       3.917197   51.86703
 10.9       3.907311   50.68234
 10.9       3.897322   53.70155
 10.9       3.887269   52.03197
 10.9       3.877272   55.05924
 10.9       3.867014   56.19737
 10.9       3.856812   61.10785
 10.9       3.846605   57.48051
 10.9       3.836197   58.74804
 10.9       3.825785   57.96355
 10.9       3.815368   67.45777
 10.9       3.804788   62.37834
 10.9       3.794166   67.95582
 10.9       3.783440   70.57130
 10.9       3.772650   70.90029
 10.9       3.761875   74.90783
 10.9       3.750977   73.97581
 10.9       3.739937   83.91275
 10.9       3.728832   82.43262
 10.9       3.717842   91.74139
 10.9       3.706530   93.67935
 10.9       3.695272  108.3139
 10.9       3.684011  122.9641
 10.9       3.672605  148.2249
 10.9       3.661076  204.5730
 10.9       3.649503  266.1269
 10.9       3.637885  291.0078
 10.9       3.626143  310.6406
 10.9       3.614316  283.2984
 10.9       3.602465  247.0899
 10.9       3.590529  202.5993
 10.9       3.578370  159.8467
 10.9       3.566324  132.3769
 10.9       3.554056  106.5067
 10.9       3.541801   93.18600
 10.9       3.529482   86.68894
 10.9       3.517058   88.23862
 10.9       3.504529   88.07391
 10.9       3.491796   93.36698
 10.9       3.478998  100.3909
 10.9       3.466313  111.3773
 10.9       3.453464  127.6044
 10.9       3.440410  172.8722
 10.9       3.427351  236.0262
 10.9       3.414186  326.7097
 10.9       3.400975  391.0643
 10.9       3.387599  388.4070
 10.9       3.374177  337.8121
 10.9       3.360630  244.8389
 10.9       3.346996  149.5403
 10.9       3.333297   94.97210
 10.9       3.319493   61.95332
 10.9       3.305541   48.38977
 10.9       3.291525   41.92015
 10.9       3.277401   39.69658
 10.9       3.263232   37.88475
 10.9       3.248896   35.88458
 10.9       3.234454   32.98695
 10.9       3.219965   32.04490
 10.9       3.205370   30.12106
 10.9       3.190709   32.04310
 10.9       3.175740   27.85817
 10.9       3.160925   29.07666
 10.9       3.145742   28.10452
 10.9       3.130713   25.46798
 10.9       3.115477   27.18723
 10.9       3.100073   25.26016
 10.9       3.084622   27.61687
 10.9       3.068903   25.24538
 10.9       3.053237   25.25486
 10.9       3.037405   26.63836
 10.9       3.021423   27.24112
 10.9       3.005374   24.78259
 10.9       2.989278   26.28388
 10.9       2.972973   27.94695
 10.9       2.956500   26.34171
 10.9       2.940039   26.69640
 10.9       2.923350   25.70088
 10.9       2.906511   27.70881
 10.9       2.889606   28.32617
 10.9       2.872550   26.90884
 10.9       2.855445   26.84953
 10.9       2.838113   28.15313
 10.9       2.820732   28.70639
 10.9       2.803140   27.94009
 10.9       2.785542   28.41424
 10.9       2.767631   29.52385
 10.9       2.749653   29.43594
 10.9       2.731685   28.21073
 10.9       2.713285   29.25748
 10.9       2.694937   29.29872
 10.9       2.676539   29.43515
 10.9       2.657811   30.89649
 10.9       2.639033   31.07857
 10.9       2.620103   30.26575
 10.9       2.601003   30.06499
 10.9       2.581793   31.65693
 10.9       2.562371   33.75224
 10.9       2.542840   30.70548
 10.9       2.523155   30.86673
 10.9       2.503300   31.32785
 10.9       2.483335   33.32150
 10.9       2.463055   31.77128
 10.9       2.442767   32.59436
 10.9       2.422428   33.99267
 10.9       2.401772   34.54587
 10.9       2.380947   35.32019
 10.9       2.360010   35.87768
 10.9       2.338860   35.79395
 10.9       2.317555   37.63878
 10.9       2.295977   39.14155
 10.9       2.274450   42.57279
 10.9       2.252546   40.84691
 10.9       2.230590   44.28575
 10.9       2.208359   44.61180
 10.9       2.186136   47.74203
 10.9       2.163579   46.65916
 10.9       2.140807   51.81740
 10.9       2.117939   56.62398
 10.9       2.094840   60.45781
 10.9       2.071584   61.67915
 10.9       2.048053   69.23751
 10.9       2.024426   74.03531
 10.9       2.000626   87.99649
 10.9       1.976507   126.0961
 10.9       1.952215   191.4464
 10.9       1.927766   264.8985
 10.9       1.903101   291.6975
 10.9       1.878219   259.2054
 10.9       1.853119   180.8282
 10.9       1.827863   104.3587
 10.9       1.802373   59.56412
 10.9       1.776682   39.29759
 10.9       1.750713   32.25475
 10.9       1.724527   31.68207
 10.9       1.698182   28.82477
 10.9       1.671559   27.37612
 10.9       1.644718   26.49002
 10.9       1.617659   23.62877
 10.9       1.590441   24.73315
 10.9       1.562840   25.39922
 10.9       1.535020   23.39626
 10.9       1.507041   22.87099
 10.9       1.478843   21.66806
 10.9       1.450261   21.20467
 10.9       1.421519   22.59701
 10.9       1.392558   20.73323
 10.9       1.363316   21.64694
 10.9       1.333810   21.66215
 10.9       1.303920   20.98487
 10.9       1.273973   22.38936
 10.9       1.243596   21.19479
 10.9       1.212998   20.65147
 10.9       1.182179   23.30831
 10.9       1.151035   22.67381
 10.9       1.119669   23.01021
 10.9       1.087976   23.85304
 10.9       1.055957   24.48933
 10.9       1.023611   23.55742
 10.9       0.9910432  23.10365
 10.9       0.9582526  24.01641
 10.9       0.9250298  23.25186
 10.9       0.8916436  24.71962
 10.9       0.8577651  25.42447
 10.9       0.8238279  27.00020
 10.9       0.7892925  25.62827
 10.9       0.7546981  29.20402
 10.9       0.7196698  29.34843
 10.9       0.6841475  29.26477
 10.9       0.6485656  31.24435
 10.9       0.6124893  32.36211
 10.9       0.5761427  34.60167
 10.9       0.5393606  36.10441
 10.9       0.5023534  35.89598
 10.9       0.4649101  39.28828
 10.9       0.4271357  40.06905
 10.9       0.3889706  45.90062
 10.9       0.3504878  49.02718
 10.9       0.3116135  51.38932
 10.9       0.2724667  56.11762
 10.9       0.2327629  63.63109
 10.9       0.1927403  70.85745
 10.9       0.1524306  90.78434
 10.9       0.1116363 139.8665
 10.9       0.0703431 217.2923
 10.9       0.0287758 277.9871
 10.9      -0.0131851 264.9914
 10.9      -0.0556322 179.2055
 10.9      -0.0984736  96.00069
 10.9      -0.1416363  47.43711
 10.9      -0.1853594  26.40868
 10.9      -0.2294047  19.26127
 10.9      -0.2741170  14.82763
 10.9      -0.3190461  12.69393
 10.9      -0.3645369  10.65409
 10.9      -0.4104573   9.718730
 10.9      -0.4568209   8.618515
 10.9      -0.5037471   6.740185
 10.9      -0.5511042   6.416813
 10.9      -0.5989056   6.553698
 10.9      -0.6471514   5.774501
 10.9      -0.6961741   4.837133
 10.9      -0.7454164   4.175329
 10.9      -0.7952109   4.689836
 10.9      -0.8455577   3.897857
 10.9      -0.8964574   3.976202
 10.9      -0.9478039   3.653008
 10.9      -0.9998106   3.161626
 10.9      -1.052372    2.875531
 10.9      -1.105381    2.799851
 10.9      -1.159051    3.040674
 10.9      -1.213158    2.952862
 10.9      -1.267940    2.910562
 11.0       4.977138    5.017562
 11.0       4.974286   18.47422
 11.0       4.971375   17.88686
 11.0       4.968260   19.03538
 11.0       4.965410   20.17169
 11.0       4.962357   19.09339
 11.0       4.959509   19.48619
 11.0       4.956458   18.17810
 11.0       4.953553   18.32905
 11.0       4.950563   18.95808
 11.0       4.947515   18.14752
 11.0       4.944526   17.10675
 11.0       4.941480   17.96698
 11.0       4.938289   24.46378
 11.0       4.935244   18.25584
 11.0       4.932260   14.90388
 11.0       4.929132   17.14609
 11.0       4.925886   19.13464
 11.0       4.922760   16.28563
 11.0       4.919634   19.39833
 11.0       4.916451   19.75417
 11.0       4.913123   14.91005
 11.0       4.910001   17.08178
 11.0       4.906821   16.99466
 11.0       4.903496   18.02040
 11.0       4.900233   17.04299
 11.0       4.897055   19.37769
 11.0       4.893734   17.08755
 11.0       4.890474   22.01237
 11.0       4.887011   19.08049
 11.0       4.883693   18.55050
 11.0       4.880435   21.67324
 11.0       4.876976   17.71848
 11.0       4.873576   18.90076
 11.0       4.870119   15.84478
 11.0       4.866722   13.87073
 11.0       4.863266   16.09798
 11.0       4.859871   16.63760
 11.0       4.856274   15.72298
 11.0       4.852822   17.28662
 11.0       4.849227   18.01456
 11.0       4.845693   17.30871
 11.0       4.842100   16.40704
 11.0       4.838509   20.14834
 11.0       4.835037   12.42566
 11.0       4.831448   16.14718
 11.0       4.827716   18.24243
 11.0       4.823986   16.96178
 11.0       4.820316   18.04819
 11.0       4.816588   14.63438
 11.0       4.812861   16.88472
 11.0       4.809196   17.37295
 11.0       4.805531   18.81516
 11.0       4.801605   15.84931
 11.0       4.797799   15.76360
 11.0       4.794138   15.67796
 11.0       4.790335   21.22872
 11.0       4.786473   15.50786
 11.0       4.782470   18.58239
 11.0       4.778527   17.18726
 11.0       4.774527   17.64458
 11.0       4.770730   15.53691
 11.0       4.766732   14.17899
 11.0       4.762794   17.17409
 11.0       4.758656   16.89960
 11.0       4.754662   17.16358
 11.0       4.750586   13.69034
 11.0       4.746654   19.09517
 11.0       4.742521   13.71417
 11.0       4.738306   15.03653
 11.0       4.734116   16.16947
 11.0       4.729905   14.86872
 11.0       4.725836   17.87971
 11.0       4.721568   16.06962
 11.0       4.717360   14.27912
 11.0       4.713094   16.90288
 11.0       4.708688   19.32840
 11.0       4.704484   16.87897
 11.0       4.699998   12.96131
 11.0       4.695655   13.05270
 11.0       4.691254   12.48533
 11.0       4.686855   16.49736
 11.0       4.682516   13.96665
 11.0       4.678037   11.94881
 11.0       4.673500   14.12760
 11.0       4.668964   16.28067
 11.0       4.664348   15.07580
 11.0       4.659875   14.04173
 11.0       4.655202   13.96024
 11.0       4.650590   13.72307
 11.0       4.645921   13.79806
 11.0       4.641312   15.56691
 11.0       4.636645   15.32243
 11.0       4.631898   12.33835
 11.0       4.627011   14.38593
 11.0       4.622149   18.06455
 11.0       4.617406   16.31163
 11.0       4.612524   18.44656
 11.0       4.607785   19.22424
 11.0       4.602847   22.93188
 11.0       4.597969   22.35680
 11.0       4.592893   22.36861
 11.0       4.587878   20.21343
 11.0       4.582805   19.80514
 11.0       4.577794   16.97564
 11.0       4.572783   16.58970
 11.0       4.567575   22.69076
 11.0       4.562568   23.95408
 11.0       4.557281   24.92282
 11.0       4.552137   27.81572
 11.0       4.546795   31.63510
 11.0       4.541454   35.81648
 11.0       4.536234   31.38534
 11.0       4.530897   36.72908
 11.0       4.525561   28.98772
 11.0       4.520006   27.74237
 11.0       4.514534   27.17334
 11.0       4.509182   23.58002
 11.0       4.503714   20.42257
 11.0       4.498166   16.26249
 11.0       4.492620   16.80755
 11.0       4.486876   14.51845
 11.0       4.481334   11.10786
 11.0       4.475654   10.65753
 11.0       4.469916   10.59047
 11.0       4.464180   10.39837
 11.0       4.458284   11.32869
 11.0       4.452472   11.00952
 11.0       4.446542   10.93959
 11.0       4.440733   10.99205
 11.0       4.434846    8.858910
 11.0       4.428702    9.766956
 11.0       4.422760   10.66278
 11.0       4.416620    9.046819
 11.0       4.410542    8.633746
 11.0       4.404466   11.16315
 11.0       4.398192    8.639267
 11.0       4.391981   10.43908
 11.0       4.385771    9.679783
 11.0       4.379564    9.960118
 11.0       4.373160   10.69122
 11.0       4.366678    8.248441
 11.0       4.360338    9.541278
 11.0       4.353860   10.03608
 11.0       4.347385   10.96687
 11.0       4.340714   10.89440
 11.0       4.334104    8.963854
 11.0       4.327635    9.990117
 11.0       4.320831   12.40453
 11.0       4.314149   10.82170
 11.0       4.307409   10.00427
 11.0       4.300473    9.302898
 11.0       4.293738   10.08031
 11.0       4.286727    8.239377
 11.0       4.279719   10.98068
 11.0       4.272793    9.568666
 11.0       4.265849    9.197089
 11.0       4.258571    9.236045
 11.0       4.251374    8.971394
 11.0       4.244240    9.810992
 11.0       4.237048   10.63847
 11.0       4.229641   10.56536
 11.0       4.222238   10.00224
 11.0       4.214974   10.03043
 11.0       4.207437    8.897181
 11.0       4.199902    9.987826
 11.0       4.192430    9.346047
 11.0       4.184841   10.51189
 11.0       4.177038   10.62645
 11.0       4.169375    7.937231
 11.0       4.161715   10.19940
 11.0       4.153723    8.746473
 11.0       4.145852    8.593218
 11.0       4.137924    9.803053
 11.0       4.129802    8.742029
 11.0       4.121939   10.02189
 11.0       4.113882    9.772573
 11.0       4.105552   10.40827
 11.0       4.097363    8.757194
 11.0       4.089176    9.911263
 11.0       4.080658   10.09868
 11.0       4.072262   10.19696
 11.0       4.063809   11.14373
 11.0       4.055162    8.529217
 11.0       4.046637    9.305281
 11.0       4.038055    8.987516
 11.0       4.029202    9.665090
 11.0       4.020489    9.019969
 11.0       4.011642   10.25576
 11.0       4.002661    7.836927
 11.0       3.993683    9.142105
 11.0       3.984571   10.58651
 11.0       3.975522    9.717528
 11.0       3.966280    9.723308
 11.0       3.956980    9.105628
 11.0       3.947667    9.577884
 11.0       3.938297   10.65556
 11.0       3.928990   11.94440
 11.0       3.919294   10.04185
 11.0       3.909660   10.49005
 11.0       3.899953   10.93063
 11.0       3.890190   10.84710
 11.0       3.880293   11.27657
 11.0       3.870400   10.75393
 11.0       3.860434   11.46419
 11.0       3.850411   11.16095
 11.0       3.840060   11.57144
 11.0       3.829967   10.00228
 11.0       3.819606   11.67161
 11.0       3.809265   12.96722
 11.0       3.798774   12.72802
 11.0       3.788228   13.78838
 11.0       3.777549   12.32529
 11.0       3.766874   13.57156
 11.0       3.755991   12.93081
 11.0       3.745187   14.28268
 11.0       3.734175   14.30003
 11.0       3.723031   16.91877
 11.0       3.711908   15.62114
 11.0       3.700636   16.52004
 11.0       3.689308   19.81656
 11.0       3.677713   24.00341
 11.0       3.666242   31.99490
 11.0       3.654655   36.44510
 11.0       3.642936   44.01650
 11.0       3.631146   49.87543
 11.0       3.619165   48.07520
 11.0       3.607188   46.95960
 11.0       3.595005   38.89916
 11.0       3.582825   31.97050
 11.0       3.570455   27.55169
 11.0       3.558089   20.36103
 11.0       3.545652   17.54473
 11.0       3.532890   16.71319
 11.0       3.520192   15.55455
 11.0       3.507363   15.92813
 11.0       3.494344   15.12606
 11.0       3.481254   18.85744
 11.0       3.468169   22.79709
 11.0       3.454759   32.03375
 11.0       3.441413   47.71970
 11.0       3.427938   63.82548
 11.0       3.414273   91.69130
 11.0       3.400537  111.2148
 11.0       3.386478  112.8462
 11.0       3.372617  107.1818
 11.0       3.358493   85.33395
 11.0       3.344239   60.57099
 11.0       3.329856   31.07202
 11.0       3.315343   15.34950
 11.0       3.300642    8.960917
 11.0       3.285931    8.393493
 11.0       3.270971    6.480964
 11.0       3.256076    6.471060
 11.0       3.240784    7.220744
 11.0       3.225498    6.826356
 11.0       3.210023    6.205010
 11.0       3.194539    6.056463
 11.0       3.178807    6.368051
 11.0       3.162873    5.946959
 11.0       3.146944    6.522424
 11.0       3.130753    5.705010
 11.0       3.114494    7.904809
 11.0       3.097854    5.819284
 11.0       3.081279    4.898477
 11.0       3.064577    6.270274
 11.0       3.047613    5.701336
 11.0       3.030448    6.280348
 11.0       3.013229    5.344631
 11.0       2.995883    5.501174
 11.0       2.978277    5.818018
 11.0       2.960602    5.235340
 11.0       2.942608    5.587599
 11.0       2.924487    5.096369
 11.0       2.906240    5.008186
 11.0       2.887732    6.209921
 11.0       2.869157    5.376513
 11.0       2.850396    5.094712
 11.0       2.831436    5.614326
 11.0       2.812157    4.996215
 11.0       2.792884    5.542593
 11.0       2.773279    4.714768
 11.0       2.753622    5.616659
 11.0       2.733633    5.452901
 11.0       2.713518    6.257000
 11.0       2.693085    6.053219
 11.0       2.672527    5.116694
 11.0       2.651771    5.169560
 11.0       2.630889    5.358047
 11.0       2.609750    6.188025
 11.0       2.588294    5.082073
 11.0       2.566640    5.396924
 11.0       2.544862    5.210011
 11.0       2.522767    5.711549
 11.0       2.500475    5.297581
 11.0       2.477926    5.786474
 11.0       2.455253    5.821531
 11.0       2.432192    5.197514
 11.0       2.409007    6.506649
 11.0       2.385375    5.610783
 11.0       2.361738    6.037288
 11.0       2.337786    5.523388
 11.0       2.313579    7.157914
 11.0       2.288985    6.523597
 11.0       2.264267    6.105196
 11.0       2.239163    7.679279
 11.0       2.213937    6.913940
 11.0       2.188384    8.218544
 11.0       2.162517    7.823344
 11.0       2.136397    7.820965
 11.0       2.109891    8.634532
 11.0       2.083131    8.782454
 11.0       2.056178    9.298726
 11.0       2.028841   11.06696
 11.0       2.001190   16.75528
 11.0       1.973287   26.28349
 11.0       1.945060   41.35466
 11.0       1.916580   50.43977
 11.0       1.887586   55.80093
 11.0       1.858412   47.65822
 11.0       1.828914   32.04470
 11.0       1.798903   15.55096
 11.0       1.768772    6.829821
 11.0       1.738127    3.387450
 11.0       1.707173    3.046095
 11.0       1.675896    2.597117
 11.0       1.644167    2.317042
 11.0       1.612128    2.716552
 11.0       1.579649    2.196571
 11.0       1.546850    2.499602
 11.0       1.513729    2.426711
 11.0       1.480039    2.183800
 11.0       1.446160    2.305839
 11.0       1.411711    1.881104
 11.0       1.376812    2.416028
 11.0       1.341475    2.182845
 11.0       1.305950    2.156364
 11.0       1.269727    2.110189
 11.0       1.233185    1.986051
 11.0       1.196136    2.330668
 11.0       1.158709    2.090894
 11.0       1.120586    2.064976
 11.0       1.082146    2.020556
 11.0       1.043200    2.106134
 11.0       1.003877    2.316832
 11.0       0.9639196   1.873308
 11.0       0.9235165   2.436445
 11.0       0.8824893   1.984035
 11.0       0.8410769   2.166657
 11.0       0.7989711   2.207263
 11.0       0.7564214   2.009876
 11.0       0.7133684   2.117181
 11.0       0.6696233   1.974427
 11.0       0.6252462   1.769969
 11.0       0.5804266   2.211417
 11.0       0.5349759   2.609160
 11.0       0.4888945   2.012818
 11.0       0.4421828   2.032165
 11.0       0.3948414   2.247964
 11.0       0.3469302   2.382534
 11.0       0.2982014   2.586821
 11.0       0.2489733   2.041331
 11.0       0.1989882   2.660637
 11.0       0.1483062   3.489382
 11.0       0.0968682   5.959270
 11.0       0.0447441   8.828837
 11.0      -0.0078868   9.331628
 11.0      -0.0616490   8.128043
 11.0      -0.1159767   5.104458
 11.0      -0.1710576   2.307563
 11.0      -0.2270200   1.323746
 11.0      -0.2836750   1.203501
 11.0      -0.3412102   1.111312
 11.0      -0.3996847   1.095286
 11.0      -0.4588501   1.018768
 11.0      -0.5189534   0.8605063
 11.0      -0.5800034   0.9774450
 11.0      -0.6419305   0.7425972
 11.0      -0.7048623   0.7544706
 11.0      -0.7685418   0.8445987
 11.0      -0.8332931   0.6544815
ENDDATA           2189
ENDSUBENT         2199
SUBENT        C0114003     961115              20050926       0000
BIB                  1          1
REACTION   (8-O-16(HE3,N)10-NE-18,PAR,DA/DE)
ENDBIB               1
COMMON               2          3
EN         ANG
MEV        ADEG
 10.9       42.
ENDCOMMON            3
DATA                 2        372
E-EXC      DATA
MEV        MUB/SR/MEV
  4.849543   0.3241600
  4.840736   0.1603634
  4.836312   7.815980
  4.831826  57.59349
  4.827301  64.86072
  4.822931  62.00274
  4.818402  59.01648
  4.813753  58.85531
  4.809220  63.32752
  4.804589  63.14024
  4.800054  62.64767
  4.795418  64.89321
  4.790684  60.91447
  4.786046  61.63736
  4.781346  62.05119
  4.776508  62.75479
  4.771767  58.56827
  4.766963  62.95652
  4.762180  59.54087
  4.757276  62.27094
  4.752429  56.43182
  4.747482  59.14434
  4.742632  58.67692
  4.737681  58.92367
  4.732571  61.14668
  4.727677  60.80972
  4.722661  62.85394
  4.717507  60.97449
  4.712449  60.08297
  4.707232  60.98841
  4.702131  62.70292
  4.697067  58.13381
  4.691805  59.02786
  4.686541  60.17897
  4.681274  60.51167
  4.675946  59.64019
  4.670676  58.51139
  4.665206  59.49835
  4.659933  58.64020
  4.654459  62.21386
  4.648983  59.92101
  4.643604  61.89873
  4.637966  61.54762
  4.632484  57.89045
  4.626803  62.74767
  4.621278  63.52246
  4.615632  60.65887
  4.610003  69.76315
  4.604253  67.63290
  4.598462  69.58065
  4.592828  64.17001
  4.586933  69.26911
  4.581076  78.89863
  4.575177  78.32298
  4.569276  89.09688
  4.563372 100.4552
  4.557367 119.4691
  4.551420 121.7091
  4.545411 147.1381
  4.539240 137.8118
  4.533127 153.6138
  4.526972 148.9312
  4.520794 128.2267
  4.514575 120.6754
  4.508254  94.95855
  4.501989  85.88863
  4.495703  64.56560
  4.489335  62.74520
  4.482904  56.10328
  4.476471  54.45836
  4.469936  54.13468
  4.463339  48.84185
  4.456799  52.20282
  4.450276  46.01852
  4.443632  48.50268
  4.436925  44.51971
  4.430175  47.39832
  4.423423  43.77784
  4.416628  41.64912
  4.409711  41.08881
  4.402912  40.12397
  4.395908  40.28764
  4.388984  35.18969
  4.381976  40.40299
  4.374906  35.06242
  4.367773  37.43000
  4.360497  37.10237
  4.353378  39.71938
  4.346197  36.94165
  4.338871  39.81442
  4.331584  35.71840
  4.324194  36.35928
  4.316801  36.89548
  4.309364  39.88020
  4.301806  36.90939
  4.294263  37.70675
  4.286616  34.31839
  4.278949  34.47322
  4.271297  33.61674
  4.263482  37.41144
  4.255663  35.91054
  4.247902  36.04463
  4.239977  31.70905
  4.232050  33.46190
  4.224018  31.92758
  4.216043  31.81326
  4.207905  31.17615
  4.199722  35.39113
  4.191577  32.41468
  4.183228  32.03708
  4.175035  33.02099
  4.166578  34.15908
  4.158118  33.52105
  4.149655  29.47561
  4.141206  34.16688
  4.132636  33.78223
  4.123960  32.33902
  4.115282  32.94111
  4.106558  30.06737
  4.097670  33.55589
  4.088838  33.73525
  4.079944  32.09247
  4.070944  30.46923
  4.061900  28.86542
  4.052851  32.62870
  4.043639  33.10714
  4.034423  30.05913
  4.025221  30.08869
  4.015896  32.00322
  4.006466  32.09112
  3.996991  31.43116
  3.987512  29.22449
  3.977868  29.83813
  3.968118  32.33989
  3.958424  29.87557
  3.948727  29.60332
  3.938763  30.47753
  3.928854  29.20642
  3.918780  31.76209
  3.908822  30.00513
  3.898638  33.28343
  3.888510  33.74921
  3.878277  30.08533
  3.867818  30.08498
  3.857474  34.08037
  3.846981  30.28071
  3.836468  29.20442
  3.825746  29.73382
  3.815139  28.07905
  3.804307  31.42011
  3.793530  31.07298
  3.782544  30.66399
  3.771554  33.84886
  3.760560  33.61350
  3.749297  35.90786
  3.738090  33.89932
  3.726775  35.71917
  3.715456  41.10159
  3.703928  46.03711
  3.692335  54.56248
  3.680696  70.84259
  3.669052  90.86043
  3.657241  117.0424
  3.645338  138.9901
  3.633312  151.0761
  3.621299  157.9514
  3.609161  140.5653
  3.596872  118.4023
  3.584579  90.59637
  3.572178  75.17151
  3.559728  62.89624
  3.547112  51.80132
  3.534431  46.86734
  3.521657  43.82262
  3.508820  47.88708
  3.495874  50.36629
  3.482821  58.90725
  3.469554  68.06976
  3.456447  89.27791
  3.443009 125.0625
  3.429581 184.2184
  3.416089 243.3243
  3.402384 299.7849
  3.388674 322.4766
  3.374752 288.5782
  3.360780 228.4440
  3.346684 142.8700
  3.332598  88.01557
  3.318344  55.45481
  3.303876  40.77578
  3.289463  32.63732
  3.274777  30.02524
  3.260145  26.97134
  3.245345  24.72223
  3.230390  23.54325
  3.215370  22.09951
  3.200136  24.67183
  3.184852  23.37617
  3.169398  19.53637
  3.153835  19.61295
  3.138221  18.20017
  3.122497  18.90870
  3.106603  15.83467
  3.090554  17.16391
  3.074440  18.03454
  3.058111  16.50725
  3.041791  17.40971
  3.025241  15.82301
  3.008534  15.19075
  2.991823  16.03654
  2.974895  15.45165
  2.957797  14.58548
  2.940588  16.35521
  2.923388  16.18435
  2.905852  15.20804
  2.888264  16.56699
  2.870461  14.05235
  2.852545  16.65635
  2.834459  16.17057
  2.816321  15.34254
  2.798025  15.02611
  2.779499  15.09469
  2.760815  14.32907
  2.742079  15.44960
  2.723112  15.76953
  2.703987  14.93932
  2.684750  13.57264
  2.665295  13.49704
  2.645727  13.67335
  2.626107  14.52356
  2.606045  13.55359
  2.585929  14.84444
  2.565760  11.90169
  2.545313  14.28671
  2.524753  13.65353
  2.504034  13.19933
  2.483036  13.62631
  2.461985  14.11155
  2.440596  13.72726
  2.419106  15.02079
  2.397504  14.50255
  2.375622  13.15351
  2.353520  14.44714
  2.331365  15.55885
  2.308823  15.77035
  2.286227  15.85213
  2.263458  16.42495
  2.240422  17.44532
  2.217271  20.29701
  2.193734  18.97694
  2.170142  20.39079
  2.146330  21.80745
  2.122236  25.30593
  2.098041  28.62430
  2.073505  32.60069
  2.048807  41.06647
  2.023887  57.49015
  1.998853  83.95306
  1.973383  141.6121
  1.947798  207.6093
  1.921931  254.4088
  1.895854  268.9724
  1.869542  207.0994
  1.843020  121.5665
  1.816215  68.11701
  1.789188  39.88242
  1.761830  25.11455
  1.734309  20.28059
  1.706505  19.61246
  1.678537  16.36857
  1.650178  14.69979
  1.621655  13.87332
  1.592741  12.15733
  1.563603  10.66528
  1.534193  10.39767
  1.504558   9.991468
  1.474592   9.380128
  1.444340   8.266864
  1.413757   8.280776
  1.382900   8.681844
  1.351985   7.920206
  1.320403   7.732396
  1.288655   8.079986
  1.256681   8.266070
  1.224373   7.184795
  1.191732   7.481802
  1.158708   7.345105
  1.125446   7.231299
  1.091753   6.951287
  1.057822   7.069780
  1.023568   6.836073
 0.9888701   7.358139
 0.9538854   6.621244
 0.9186247   6.635269
 0.8828605   6.490334
 0.8468684   6.464614
 0.8104431   6.960596
 0.7736702   6.182472
 0.7364523   6.195966
 0.6989571   6.452192
 0.6610167   6.312497
 0.6227387   6.358542
 0.5840148   6.584680
 0.5449529   6.823323
 0.5053363   6.396856
 0.4655493   6.401478
 0.4252556   6.719253
 0.3844061   6.183220
 0.3432176   5.828310
 0.3016407   6.443992
 0.2595561   7.263501
 0.2170230   8.429179
 0.1740412   9.962464
 0.1306699  12.85632
 0.0867407  18.07724
 0.0423617  20.56657
-0.0024075  20.86484
-0.0477463  16.07488
-0.0935848  10.12497
-0.1397654   7.583930
-0.1866148   6.614779
-0.2339649   5.933180
-0.2818861   5.280133
-0.3300806   4.669549
-0.3790648   5.136181
-0.4286108   5.264527
-0.4785503   4.474592
-0.5290523   4.466659
-0.5802264   4.678326
-0.6319637   4.748469
-0.6842648   4.305041
-0.7371299   4.349674
-0.7906687   4.261058
-0.8447722   4.446768
-0.8995504   4.139060
-0.9548940   4.180723
-1.010913    4.195592
-1.067598    3.861708
-1.124860    4.148489
-1.182908    3.821369
-1.241513    3.692967
-1.300906    4.088281
-1.360987    3.993503
-1.421737    3.541438
-1.483284    3.568222
-1.545502    3.819735
-1.608510    3.941765
-1.672197    4.225657
-1.736795    3.880654
-1.802055    3.726230
-1.868236    3.266257
-1.935199    3.478865
-2.002836    3.218460
-2.071386    3.199610
-2.140839    3.180582
-2.211197    3.671608
-2.282231    3.379156
-2.354400    3.151770
-2.427356    3.025726
-2.501338    3.377957
-2.576108    2.828108
-2.651905    2.940830
-2.728593    2.885224
-2.806429    2.957008
-2.885166    2.740662
-2.964925    2.925799
-3.045696    2.888086
-3.127609    2.687561
-3.210545    2.491607
-3.294615    2.768561
-3.379820    2.443361
-3.466042    2.443780
ENDDATA            374
ENDSUBENT          384
SUBENT        C0114004     961115              20050926       0000
BIB                  1          1
REACTION   (8-O-16(HE3,N)10-NE-18,PAR,DA/DE)
ENDBIB               1
COMMON               2          3
EN         ANG
MEV        ADEG
 10.9      125.
ENDCOMMON            3
DATA                 2        376
E-EXC      DATA
MEV        MUB/SR/MEV
  4.735387   0.5628775
  4.731970   3.220870
  4.728555   6.271114
  4.725199   5.824573
  4.721786  12.14438
  4.718432  14.28236
  4.715021  16.80895
  4.711527  16.04675
  4.708035  16.37403
  4.704484  15.48562
  4.701076  14.06926
  4.697586  17.06646
  4.693896  14.72679
  4.690349  14.52179
  4.686862  14.97511
  4.683176  13.85507
  4.679691  18.07782
  4.676006  15.52892
  4.672381  14.29245
  4.668557  17.55206
  4.664876  17.20901
  4.661254  16.86878
  4.657433  16.91011
  4.653814  14.18798
  4.649995  15.74029
  4.646236  13.79624
  4.642419  16.94138
  4.638663  15.00976
  4.634848  16.64692
  4.630811  16.31867
  4.626939  13.93315
  4.623045  16.51364
  4.619153  18.70737
  4.615203  20.28141
  4.611313  24.33096
  4.607224  27.51165
  4.603276  28.19149
  4.599249  29.21410
  4.595222  28.01626
  4.591137  27.06103
  4.586973  25.30964
  4.582890  22.88857
  4.578809  22.76875
  4.574647  24.23496
  4.570427  24.44570
  4.566268  23.75680
  4.562051  23.29713
  4.557895  25.50252
  4.553539  29.77946
  4.549244  36.97222
  4.544951  41.14096
  4.540599  48.30313
  4.536248  54.41552
  4.531959  57.77581
  4.527530  55.00997
  4.523043  52.27142
  4.518557  44.17077
  4.514132  35.52464
  4.509568  30.00183
  4.505085  21.62583
  4.500525  21.61213
  4.495905  18.71800
  4.491486  15.34287
  4.486729  16.17491
  4.482033  13.75965
  4.477419  13.98615
  4.472726  13.10893
  4.468034  14.52968
  4.463284  16.23113
  4.458455  11.90941
  4.453568  13.70336
  4.448742  12.65409
  4.443858  11.90626
  4.439034  12.89889
  4.434212  13.20986
  4.429193  11.51791
  4.424374  12.58926
  4.419217  12.80114
  4.414262  10.10847
  4.409109  10.70309
  4.404016  12.03091
  4.399065  12.33090
  4.393916  10.70552
  4.388689  11.28166
  4.383464  11.85076
  4.378181  11.24354
  4.372958  10.46383
  4.367737  10.49282
  4.362458  12.20083
  4.356963  10.98805
  4.351548  9.788573
  4.346194  11.29613
  4.340783  10.62601
  4.335294  11.42332
  4.329865  12.12548
  4.324121   9.762816
  4.318637  11.47819
  4.313154  11.83055
  4.307475  10.42663
  4.301718   9.784995
  4.295963   9.727450
  4.290348   9.588090
  4.284536  10.67194
  4.278786  10.20380
  4.272900   9.660258
  4.266955  10.64311
  4.261131  12.01150
  4.255190   9.093158
  4.249172  12.57564
  4.243096   9.843900
  4.237141  12.11438
  4.231069  10.34320
  4.224860  10.97125
  4.218772  10.06600
  4.212489  10.08077
  4.206286  10.24545
  4.200006  11.53078
  4.193668   9.897563
  4.187254   9.984944
  4.180842  10.95283
  4.174570  10.59319
  4.167964  10.09232
  4.161421  10.24648
  4.154879  10.68504
  4.148338  11.75900
  4.141740  11.11926
  4.134989  10.27583
  4.128317   9.791972
  4.121587   9.522127
  4.114782  11.60351
  4.107841   9.197011
  4.101040  10.09383
  4.094044   9.216818
  4.086972  10.50533
  4.080099  10.70627
  4.072972   9.374887
  4.065907   9.975740
  4.058706  11.74999
  4.051448   9.652843
  4.044252  10.43328
  4.036784  10.17305
  4.029592  10.68310
  4.022129   9.597137
  4.014667   9.534945
  4.007267   9.033841
  3.999751  10.72012
  3.992023   9.783329
  3.984374  10.58050
  3.976846  10.69441
  3.968929  11.04912
  3.961269   8.081432
  3.953357   9.945201
  3.945369   9.165213
  3.937580   9.991131
  3.929597   8.808860
  3.921481   9.391807
  3.913367  10.66174
  3.905255   8.978698
  3.897009  11.37666
  3.888766   9.085453
  3.880193   9.757390
  3.871955  11.20382
  3.863506   9.959413
  3.854941  11.38372
  3.846498  10.59260
  3.837725  10.13869
  3.829091  10.88124
  3.820460  10.21506
  3.811560  11.05245
  3.802662  11.08222
  3.793767   9.057174
  3.784739  10.72001
  3.775713  12.46296
  3.766555   9.952430
  3.757458  10.59974
  3.748170  11.84752
  3.738825  12.21869
  3.729466  11.63130
  3.720109  14.08797
  3.710502  13.09855
  3.700956  12.85833
  3.691338  14.13124
  3.681663  14.61098
  3.671855  16.42787
  3.662051  19.55296
  3.652039  27.22480
  3.642105  35.72462
  3.632039  47.17969
  3.621841  48.55202
  3.611706  44.28995
  3.601379  38.16898
  3.590980  29.27888
  3.580465  24.74530
  3.570013  18.89162
  3.559353  18.53094
  3.548772  15.44577
  3.537925  15.28782
  3.527141  13.70029
  3.516166  14.07173
  3.505253  15.80334
  3.494150  15.09164
  3.482975  16.28276
  3.471744  17.95588
  3.460382  19.43675
  3.448948  23.48503
  3.437324  30.20522
  3.425897  44.03153
  3.414146  67.41306
  3.402263 100.1672
  3.390445 136.7681
  3.378629 137.2483
  3.366489 112.8425
  3.354219  73.71873
  3.342012  37.95524
  3.329809  22.50469
  3.317282  14.43281
  3.304818  12.07077
  3.292224  11.67861
  3.279441   9.409669
  3.266587   9.335503
  3.253677   9.152728
  3.240504   8.936054
  3.227454   8.936501
  3.214155   6.489366
  3.200920   7.457605
  3.187362   6.036892
  3.173868   6.715242
  3.160110   6.180397
  3.146298   6.164460
  3.132416   5.844197
  3.118344   5.562104
  3.104264   5.217619
  3.089934   6.526339
  3.075669   5.884325
  3.061142   6.095266
  3.046559   5.659083
  3.031834   5.261463
  3.017053   5.818591
  3.001952   5.707408
  2.986914   5.597522
  2.971616   5.643130
  2.956321   6.696483
  2.940899   6.488418
  2.925215   4.990515
  2.909404   5.991487
  2.893465   5.349419
  2.877530   6.124229
  2.861335   5.897499
  2.845012   5.530038
  2.828561   5.139759
  2.811983   5.435044
  2.795277   5.780811
  2.778311   5.174200
  2.761411   4.908469
  2.744190   5.904244
  2.726784   5.608586
  2.709369   5.988913
  2.691767   5.270552
  2.673907   5.276636
  2.655979   5.334342
  2.637865   5.856932
  2.619493   5.265199
  2.601185   4.708886
  2.582559   4.843073
  2.563675   4.774354
  2.544725   5.523752
  2.525588   4.909015
  2.506385   5.302035
  2.486865   4.434178
  2.467146   4.871046
  2.447374   4.424006
  2.427213   5.297279
  2.407118   4.923068
  2.386633   4.463187
  2.366096   4.467123
  2.345170   5.034923
  2.324178   4.428483
  2.303061   5.671755
  2.281688   5.135319
  2.260058   5.064865
  2.238304   5.016648
  2.216294   5.011380
  2.194099   4.646533
  2.171577   5.250297
  2.148872   5.137484
  2.126101   4.862062
  2.103004   5.769660
  2.079723   5.854221
  2.056056   6.414493
  2.032336   7.239131
  2.008220   8.183416
  1.984051  10.92579
  1.959437  18.83948
  1.934688  33.56961
  1.909625  45.76970
  1.884439  43.91731
  1.858929  31.46628
  1.833105  17.03971
  1.807158   9.298450
  1.780697   6.421302
  1.754174   5.049277
  1.727337   4.316051
  1.700117   4.652133
  1.672835   3.611398
  1.645170   4.065192
  1.617122   3.503293
  1.588893   3.599422
  1.560211   3.217035
  1.531348   3.037036
  1.502222   3.133537
  1.472595   2.830054
  1.442777   2.501086
  1.412708   3.127998
  1.382258   2.555640
  1.351367   2.254015
  1.320286   2.335135
  1.288694   2.473750
  1.256853   2.505795
  1.224761   2.697107
  1.192160   2.653116
  1.159369   2.495567
  1.126199   2.453884
  1.092401   2.705589
  1.058344   2.165187
  1.023978   2.372801
  0.9892936  2.305710
  0.9541018  2.386376
  0.9184727  2.333009
  0.8824661  2.423780
  0.8460127  2.460544
  0.8091821  2.037579
  0.7719750  2.265914
  0.7343913  2.550821
  0.6961132  2.078491
  0.6576481  1.981356
  0.6186086  2.270543
  0.5791340  2.267632
  0.5391551  1.924124
  0.4986723  1.947721
  0.4576858  1.936025
  0.4163846  1.652575
  0.3743918  2.046546
  0.3318962  2.010859
  0.2889579  2.019292
  0.2455867  2.048683
  0.2015755  2.247373
  0.1569435  2.851086
  0.1118701  4.437043
  0.0661671  6.691363
  0.0199638  7.854992
 -0.0268683  6.025510
 -0.0742690  4.220407
 -0.1222884  2.771720
 -0.1710043  2.168172
 -0.2202877  1.950385
 -0.2700693  1.840993
 -0.3207251  1.455796
 -0.3718875  1.437076
 -0.4238038  1.355267
 -0.4763453  1.533873
 -0.5295116  1.091399
 -0.5835584  1.346382
 -0.6381010  1.200086
 -0.6935236  1.167305
 -0.7496971  1.110070
 -0.8065616  1.177609
 -0.8642360  1.299940
 -0.9227284  1.274415
 -0.9819700  1.035779
 -1.041960   1.169877
 -1.102886   1.076966
 -1.164628   1.001482
 -1.227373   0.8903949
 -1.290805   0.8411571
 -1.355170   1.025883
 -1.420477   0.8823887
ENDDATA            378
ENDSUBENT          388
ENDENTRY             4
