ENTRY            C0115   20220530   20220823   20220823       C213
SUBENT        C0115001   20220530   20220823   20220823       C213
BIB                 11         34
INSTITUTE  (1USACAL)
REFERENCE  (J,PR/C,49,1205,1994)
           #doi:10.1103/PhysRevC.49.1205
AUTHOR     (P.R.Wrean,C.R.Brune,R.W.Kavanagh)
TITLE      Total cross sections and thermonuclear reaction rates
            for 9Be(alpha,n)12C
FACILITY   (ACCEL,1USACAL) 3-MV Pelletron tandem accelerator,
            Kellogg Radiation Laboratory
INC-SOURCE Beam energy resolution <0.5 keV.
           Beam energy determined to 0.1% by 90 degree magnetic
            analyzer whose field was determined by NMR gaussmeter.
DETECTOR   (D4PI,PROPC) Polyethylene-cube moderator embedded with
            eleven 3He proportional counters.
           Scattered protons for 9Be(p,p) reaction detected using
            silicon surface-barrier detector.
MONITOR    Detector calibrated relative to 252Cf and 241Am-Be
            sources and yield of 3H(d,n)4He with known target.
           Energy calibration relative to the 2574.2-keV neutron
            threshold in 18O(p,n), 1928.4-keV resonance in
            18O(p,gamma), 991.86-keV resonance in 27Al(p,gamma),
            606.0(+-0.5)-keV resonance in 11B(alpha,n), and
            1530.03(+-0.15)-keV resonance in 24Mg(alpha,gamma).
CORRECTION Neutron yields corrected for:
           .detector deadtime (<0.5% for all points),
           .background subtraction (<0.2% for E(cm)>0.29 MeV), and
           .target loss (<1% for E(cm)>0.32 MeV).
STATUS     (TABLE) Data received by electronic mail, P.Wrean,
            96/11/24 and 96/12/6.
           (APRVD) Approved by P. Wrean, 97/1/23.
HISTORY    (19961204C)
           (20030625A) Converted to new date formats.
           (20160628A) OS. REACTION in sub.5 corrected,
            ERR-ANALYS updated in all subs.
           (20220502A) OS. REACTION code in sub.6 corrected
ENDBIB              34
NOCOMMON             0          0
ENDSUBENT           37
SUBENT        C0115002   20160709   20161017   20160920       C159
BIB                  5         15
REACTION   (4-BE-9(A,N)6-C-12,,SIG)
SAMPLE     18.4 micro-g/cm2 of pure beryllium evaporated onto
            etched copper disks.
MONITOR    (4-BE-9(P,EL)4-BE-9,,DA,,RTH) = 39.5+1.2 at E(p) =
            2.522+-0.004 MeV used to determine areal density of
            9Be target = (1.23+-0.04)10**18 nuclei/cm2 (18.4
            microg/cm2) adopted as average of values from 2
            measurements.
ERR-ANALYS (ERR-S) Statistical uncertainty,
           (ERR-1) Normalization uncertainty. Major
            contributions due to uncertainty in
            .neutron detector efficiency (8%),
            .target thickness (3%),
            .target thickness deconvolution procedure (3%).
HISTORY    (19970616A) MONITOR corrected.
ENDBIB              15
COMMON               1          3
ERR-1
PER-CENT
 9.
ENDCOMMON            3
DATA                 3        163
EN-CM      DATA       ERR-S
MEV        MB         MB
 0.1543     2.7944E-06 9.0265E-07
 0.1610     1.3837E-05 8.9648E-07
 0.1638     2.3449E-05 1.1554E-06
 0.1661     3.3697E-05 1.3989E-06
 0.1702     3.8242E-05 1.4181E-06
 0.1806     3.2577E-05 1.0887E-06
 0.1956     3.4557E-05 1.2250E-06
 0.2031     4.4080E-05 1.5181E-06
 0.2103     5.4172E-05 1.7729E-06
 0.2175     7.3939E-05 1.9231E-06
 0.2246     1.0474E-04 2.3326E-06
 0.2317     1.4400E-04 2.8160E-06
 0.2388     2.0632E-04 3.9884E-06
 0.2458     2.9373E-04 4.6808E-06
 0.2528     4.2861E-04 6.1028E-06
 0.2598     5.9938E-04 7.6867E-06
 0.2668     9.0214E-04 1.1477E-05
 0.2738     1.3087E-03 1.2236E-05
 0.2807     1.9451E-03 1.9308E-05
 0.2878     2.9007E-03 2.7582E-05
 0.2912     3.5594E-03 3.4310E-05
 0.2948     4.2898E-03 4.4970E-05
 0.2982     5.2689E-03 5.1424E-05
 0.3018     6.6403E-03 6.2950E-05
 0.3053     8.2936E-03 6.6561E-05
 0.3087     1.0269E-02 7.3682E-05
 0.3123     1.2837E-02 8.3130E-05
 0.3158     1.6148E-02 9.3547E-05
 0.3192     2.0073E-02 1.7607E-04
 0.3227     2.4699E-02 1.8024E-04
 0.3297     3.9398E-02 2.2512E-04
 0.3363     6.0309E-02 3.0181E-04
 0.3429     8.8368E-02 3.9557E-04
 0.3492     1.2024E-01 5.0234E-04
 0.3552     1.4999E-01 5.8078E-04
 0.3613     1.6731E-01 6.5812E-04
 0.3741     1.7203E-01 7.6158E-04
 0.3878     1.5125E-01 7.1713E-04
 0.3949     1.4040E-01 5.3408E-04
 0.3984     1.3454E-01 7.0230E-04
 0.4020     1.3231E-01 4.9984E-04
 0.4020     1.3236E-01 6.4958E-04
 0.4056     1.3066E-01 6.4784E-04
 0.4096     1.2779E-01 6.2346E-04
 0.4145     1.2979E-01 6.3241E-04
 0.4203     1.5953E-01 7.3669E-04
 0.4233     2.2649E-01 1.0267E-03
 0.4255     3.7880E-01 1.5486E-03
 0.4273     6.5034E-01 3.1366E-03
 0.4292     5.6299E-01 2.7247E-03
 0.4310     3.3169E-01 1.5980E-03
 0.4331     2.1808E-01 1.0728E-03
 0.4365     1.6931E-01 8.5266E-04
 0.4422     1.4569E-01 7.1613E-04
 0.4467     1.3261E-01 6.6360E-04
 0.4506     1.2709E-01 6.3417E-04
 0.4542     1.2534E-01 6.3318E-04
 0.4578     1.2503E-01 6.2704E-04
 0.4719     1.2662E-01 5.2927E-04
 0.4859     1.3219E-01 6.3918E-04
 0.4998     1.3979E-01 5.6293E-04
 0.5138     1.5009E-01 5.6937E-04
 0.5277     1.6242E-01 8.0713E-04
 0.5417     1.7654E-01 6.8673E-04
 0.5556     1.9179E-01 7.9422E-04
 0.5696     2.1199E-01 8.5313E-04
 0.5835     2.3346E-01 9.0288E-04
 0.5975     2.5717E-01 1.0225E-03
 0.6114     2.8575E-01 1.1361E-03
 0.6253     3.1400E-01 1.2111E-03
 0.6392     3.4780E-01 1.3103E-03
 0.6532     3.8665E-01 1.5749E-03
 0.6671     4.3017E-01 1.6927E-03
 0.6811     4.7709E-01 2.0797E-03
 0.6950     5.2818E-01 2.0669E-03
 0.7089     5.9110E-01 2.9745E-03
 0.7089     5.8939E-01 2.4355E-03
 0.7228     6.6519E-01 4.0280E-03
 0.7368     7.3104E-01 4.2221E-03
 0.7507     8.1902E-01 4.3118E-03
 0.7647     9.1929E-01 4.5887E-03
 0.7785     1.0284E+00 4.8512E-03
 0.7925     1.1385E+00 5.0706E-03
 0.8064     1.2915E+00 5.4661E-03
 0.8204     1.4496E+00 5.7616E-03
 0.8343     1.6220E+00 6.1910E-03
 0.8482     1.8428E+00 7.0719E-03
 0.8621     2.0966E+00 7.9117E-03
 0.8761     2.3944E+00 9.1420E-03
 0.8900     2.7212E+00 1.0306E-02
 0.9040     3.1464E+00 1.2140E-02
 0.9178     3.5901E+00 1.3689E-02
 0.9318     4.1448E+00 1.5515E-02
 0.9457     4.8317E+00 1.8124E-02
 0.9596     5.6792E+00 2.1814E-02
 0.9736     6.7910E+00 2.5491E-02
 0.9875     8.0407E+00 3.0828E-02
 1.0014     9.8574E+00 3.6924E-02
 1.0153     1.1958E+01 4.4762E-02
 1.0293     1.4816E+01 5.5488E-02
 1.0431     1.8202E+01 7.0798E-02
 1.0570     2.1838E+01 8.1870E-02
 1.0708     2.5502E+01 9.6282E-02
 1.0847     2.8474E+01 1.0962E-01
 1.0985     3.0432E+01 1.1405E-01
 1.1124     3.2258E+01 1.3106E-01
 1.1263     3.4438E+01 1.3629E-01
 1.1403     3.7847E+01 1.4588E-01
 1.1542     4.2699E+01 1.5998E-01
 1.1682     4.9563E+01 1.8889E-01
 1.1821     5.8689E+01 2.2110E-01
 1.1821     5.8866E+01 2.2041E-01
 1.1961     6.9905E+01 2.6481E-01
 1.2100     8.3975E+01 3.1686E-01
 1.2240     1.0143E+02 3.8235E-01
 1.2378     1.2412E+02 4.6509E-01
 1.2517     1.5220E+02 5.8895E-01
 1.2655     1.8497E+02 6.9594E-01
 1.2794     2.1930E+02 8.3331E-01
 1.2931     2.4850E+02 1.0197E+00
 1.3070     2.6239E+02 9.9785E-01
 1.3207     2.5892E+02 9.8133E-01
 1.3346     2.4533E+02 9.2185E-01
 1.3485     2.2707E+02 8.5161E-01
 1.3624     2.0762E+02 7.7718E-01
 1.3763     1.9153E+02 7.2979E-01
 1.3763     1.9284E+02 7.2455E-01
 1.3902     1.7852E+02 6.7484E-01
 1.4041     1.7426E+02 6.5646E-01
 1.4181     1.6783E+02 6.6387E-01
 1.4319     1.6827E+02 6.5224E-01
 1.4459     1.6702E+02 6.3639E-01
 1.4598     1.6903E+02 6.4155E-01
 1.4737     1.6919E+02 6.3329E-01
 1.4737     1.6930E+02 6.4057E-01
 1.4875     1.6959E+02 6.5351E-01
 1.5015     1.7088E+02 6.4025E-01
 1.5153     1.6981E+02 6.3578E-01
 1.5293     1.6736E+02 6.2724E-01
 1.5431     1.6594E+02 6.2121E-01
 1.5570     1.6454E+02 6.2320E-01
 1.5709     1.6063E+02 6.1243E-01
 1.5848     1.5977E+02 6.1215E-01
 1.5986     1.5641E+02 5.9527E-01
 1.6126     1.5457E+02 5.8650E-01
 1.6264     1.5283E+02 5.8228E-01
 1.6404     1.5163E+02 5.7789E-01
 1.6542     1.4960E+02 5.7067E-01
 1.6682     1.4864E+02 5.6684E-01
 1.6820     1.4925E+02 5.6645E-01
 1.6960     1.4895E+02 5.6695E-01
 1.7098     1.4965E+02 5.6797E-01
 1.7237     1.5073E+02 5.6744E-01
 1.7376     1.5334E+02 5.7511E-01
 1.7515     1.5518E+02 5.8084E-01
 1.7653     1.5452E+02 5.7892E-01
 1.7792     1.5493E+02 5.8141E-01
 1.7931     1.5251E+02 5.7085E-01
 1.8070     1.4742E+02 5.5987E-01
 1.8208     1.4147E+02 5.3798E-01
 1.8347     1.3522E+02 5.1145E-01
 1.8486     1.2813E+02 4.8278E-01
 1.8625     1.2147E+02 4.6411E-01
ENDDATA            165
ENDSUBENT          189
SUBENT        C0115003   20160709   20161017   20160920       C159
BIB                  4         10
REACTION   (4-BE-9(A,N)6-C-12,,SIG)
SAMPLE     0.76 micro-g/cm2  of pure beryllium evaporated onto
            etched copper disks.
MONITOR    Areal density of target determined by comparison of
            non-resonant yield with yield of 18.4 microg/cm2
            target.
ERR-ANALYS (ERR-S) Statistical uncertainty,
           (ERR-1) Normalization uncertainty. Major
            contribution is from 8% uncertainty in neutron
            detector efficiency.
ENDBIB              10
COMMON               1          3
ERR-1
PER-CENT
 9.
ENDCOMMON            3
DATA                 3         29
EN-CM      DATA       ERR-S
MEV        MB         MB
 0.4081     1.2890E-01 1.5099E-03
 0.4115     1.2701E-01 1.4883E-03
 0.4150     1.3080E-01 1.4524E-03
 0.4184     1.3796E-01 1.4753E-03
 0.4219     1.7566E-01 1.6963E-03
 0.4233     2.1426E-01 1.8669E-03
 0.4247     3.0202E-01 2.2182E-03
 0.4254     3.8004E-01 2.4882E-03
 0.4261     4.8269E-01 2.8188E-03
 0.4268     6.0219E-01 3.2005E-03
 0.4274     6.7356E-01 3.3937E-03
 0.4281     6.7639E-01 3.4128E-03
 0.4287     6.2492E-01 3.2076E-03
 0.4294     5.3687E-01 2.9597E-03
 0.4301     4.4098E-01 2.6720E-03
 0.4308     3.6181E-01 2.4192E-03
 0.4315     3.0649E-01 2.2134E-03
 0.4322     2.6302E-01 2.0656E-03
 0.4329     2.3218E-01 1.9337E-03
 0.4336     2.1021E-01 1.8379E-03
 0.4343     1.9184E-01 1.7637E-03
 0.4358     1.7410E-01 1.6544E-03
 0.4371     1.5586E-01 1.5503E-03
 0.4392     1.4444E-01 1.4922E-03
 0.4427     1.3312E-01 1.4357E-03
 0.4461     1.3220E-01 1.4409E-03
 0.4496     1.3211E-01 1.5394E-03
 0.4531     1.2986E-01 1.5131E-03
 0.4565     1.2523E-01 1.4441E-03
ENDDATA             31
ENDSUBENT           50
SUBENT        C0115004   20160709   20161017   20160920       C159
BIB                  3          7
REACTION   (4-BE-9(A,N)6-C-12,,SIG,,SFC)
ERR-ANALYS (ERR-S) Statistical uncertainty,
           (ERR-1) Normalization uncertainty. Major
            contribution is from 8% uncertainty in neutron
            detector efficiency.
STATUS     (DEP,C0115002)
           (DEP,C0115003)
ENDBIB               7
COMMON               1          3
ERR-1
PER-CENT
 9.
ENDCOMMON            3
DATA                 3        163
EN-CM      DATA       ERR-S
MEV        B*MEV      B*MEV
 0.1543     1.5973E+05 5.1596E+04
 0.1610     4.0761E+05 2.6408E+04
 0.1638     5.3013E+05 2.6121E+04
 0.1661     6.1612E+05 2.5579E+04
 0.1702     4.8423E+05 1.7956E+04
 0.1806     1.7213E+05 5.7524E+03
 0.1956     5.8816E+04 2.0849E+03
 0.2031     4.4707E+04 1.5397E+03
 0.2103     3.4338E+04 1.1238E+03
 0.2175     3.0005E+04 7.8040E+02
 0.2246     2.7983E+04 6.2317E+02
 0.2317     2.5834E+04 5.0519E+02
 0.2388     2.5317E+04 4.8940E+02
 0.2458     2.5200E+04 4.0158E+02
 0.2528     2.6108E+04 3.7174E+02
 0.2598     2.6296E+04 3.3723E+02
 0.2668     2.8890E+04 3.6755E+02
 0.2738     3.0975E+04 2.8962E+02
 0.2807     3.4569E+04 3.4314E+02
 0.2878     3.8817E+04 3.6910E+02
 0.2912     4.1738E+04 4.0232E+02
 0.2948     4.3850E+04 4.5968E+02
 0.2982     4.7422E+04 4.6283E+02
 0.3018     5.2356E+04 4.9633E+02
 0.3053     5.7629E+04 4.6251E+02
 0.3087     6.3245E+04 4.5381E+02
 0.3123     6.9741E+04 4.5162E+02
 0.3158     7.7816E+04 4.5080E+02
 0.3192     8.6264E+04 7.5667E+02
 0.3227     9.4525E+04 6.8979E+02
 0.3297     1.2027E+05 6.8721E+02
 0.3363     1.4976E+05 7.4944E+02
 0.3429     1.7960E+05 8.0395E+02
 0.3492     2.0296E+05 8.4793E+02
 0.3552     2.1314E+05 8.2533E+02
 0.3613     2.0051E+05 7.8870E+02
 0.3741     1.4623E+05 6.4736E+02
 0.3878     9.0781E+04 4.3042E+02
 0.3949     7.0883E+04 2.6965E+02
 0.3984     6.2484E+04 3.2618E+02
 0.4020     5.6460E+04 2.1330E+02
 0.4020     5.6482E+04 2.7720E+02
 0.4056     5.1290E+04 2.5430E+02
 0.4096     4.5779E+04 2.2334E+02
 0.4145     4.1644E+04 2.0291E+02
 0.4203     4.5044E+04 2.0801E+02
 0.4233     5.9924E+04 2.7165E+02
 0.4255     9.5599E+04 3.9083E+02
 0.4273     1.5795E+05 7.6179E+02
 0.4292     1.3134E+05 6.3564E+02
 0.4310     7.4506E+04 3.5895E+02
 0.4331     4.6884E+04 2.3064E+02
 0.4365     3.3928E+04 1.7086E+02
 0.4422     2.5997E+04 1.2779E+02
 0.4467     2.1627E+04 1.0823E+02
 0.4506     1.9195E+04 9.5783E+01
 0.4542     1.7651E+04 8.9168E+01
 0.4578     1.6431E+04 8.2405E+01
 0.4719     1.2794E+04 5.3480E+01
 0.4859     1.0412E+04 5.0343E+01
 0.4998     8.6909E+03 3.4999E+01
 0.5138     7.4288E+03 2.8181E+01
 0.5277     6.4707E+03 3.2155E+01
 0.5417     5.7022E+03 2.2181E+01
 0.5556     5.0717E+03 2.1003E+01
 0.5696     4.6186E+03 1.8587E+01
 0.5835     4.2270E+03 1.6347E+01
 0.5975     3.8908E+03 1.5470E+01
 0.6114     3.6403E+03 1.4474E+01
 0.6253     3.3888E+03 1.3071E+01
 0.6392     3.1980E+03 1.2048E+01
 0.6532     3.0420E+03 1.2391E+01
 0.6671     2.9138E+03 1.1466E+01
 0.6811     2.7929E+03 1.2175E+01
 0.6950     2.6873E+03 1.0516E+01
 0.7089     2.6252E+03 1.3210E+01
 0.7089     2.6176E+03 1.0817E+01
 0.7228     2.5895E+03 1.5680E+01
 0.7368     2.5020E+03 1.4450E+01
 0.7507     2.4759E+03 1.3035E+01
 0.7647     2.4614E+03 1.2286E+01
 0.7785     2.4513E+03 1.1563E+01
 0.7925     2.4196E+03 1.0777E+01
 0.8064     2.4572E+03 1.0400E+01
 0.8204     2.4744E+03 9.8344E+00
 0.8343     2.4929E+03 9.5150E+00
 0.8482     2.5571E+03 9.8132E+00
 0.8621     2.6336E+03 9.9381E+00
 0.8761     2.7276E+03 1.0414E+01
 0.8900     2.8201E+03 1.0680E+01
 0.9040     2.9712E+03 1.1464E+01
 0.9178     3.1002E+03 1.1820E+01
 0.9318     3.2757E+03 1.2261E+01
 0.9457     3.5043E+03 1.3145E+01
 0.9596     3.7875E+03 1.4548E+01
 0.9736     4.1700E+03 1.5653E+01
 0.9875     4.5571E+03 1.7472E+01
 1.0014     5.1656E+03 1.9349E+01
 1.0153     5.8040E+03 2.1726E+01
 1.0293     6.6680E+03 2.4972E+01
 1.0431     7.6157E+03 2.9622E+01
 1.0570     8.5036E+03 3.1879E+01
 1.0708     9.2598E+03 3.4961E+01
 1.0847     9.6502E+03 3.7152E+01
 1.0985     9.6446E+03 3.6145E+01
 1.1124     9.5682E+03 3.8875E+01
 1.1263     9.5728E+03 3.7884E+01
 1.1403     9.8670E+03 3.8033E+01
 1.1542     1.0459E+04 3.9184E+01
 1.1682     1.1414E+04 4.3499E+01
 1.1821     1.2728E+04 4.7949E+01
 1.1821     1.2766E+04 4.7800E+01
 1.1961     1.4286E+04 5.4118E+01
 1.2100     1.6197E+04 6.1116E+01
 1.2240     1.8476E+04 6.9648E+01
 1.2378     2.1391E+04 8.0155E+01
 1.2517     2.4832E+04 9.6091E+01
 1.2655     2.8610E+04 1.0764E+02
 1.2794     3.2172E+04 1.2225E+02
 1.2931     3.4635E+04 1.4212E+02
 1.3070     3.4750E+04 1.3215E+02
 1.3207     3.2633E+04 1.2368E+02
 1.3346     2.9431E+04 1.1059E+02
 1.3485     2.5948E+04 9.7317E+01
 1.3624     2.2619E+04 8.4668E+01
 1.3763     1.9908E+04 7.5855E+01
 1.3763     2.0044E+04 7.5310E+01
 1.3902     1.7717E+04 6.6973E+01
 1.4041     1.6525E+04 6.2251E+01
 1.4181     1.5213E+04 6.0177E+01
 1.4319     1.4600E+04 5.6591E+01
 1.4459     1.3871E+04 5.2855E+01
 1.4598     1.3451E+04 5.1054E+01
 1.4737     1.2909E+04 4.8320E+01
 1.4737     1.2918E+04 4.8875E+01
 1.4875     1.2418E+04 4.7853E+01
 1.5015     1.2008E+04 4.4993E+01
 1.5153     1.1466E+04 4.2930E+01
 1.5293     1.0858E+04 4.0696E+01
 1.5431     1.0357E+04 3.8772E+01
 1.5570     9.8818E+03 3.7428E+01
 1.5709     9.2879E+03 3.5412E+01
 1.5848     8.8991E+03 3.4097E+01
 1.5986     8.3989E+03 3.1964E+01
 1.6126     8.0013E+03 3.0361E+01
 1.6264     7.6350E+03 2.9088E+01
 1.6404     7.3097E+03 2.7859E+01
 1.6542     6.9664E+03 2.6574E+01
 1.6682     6.6861E+03 2.5497E+01
 1.6820     6.4909E+03 2.4635E+01
 1.6960     6.2629E+03 2.3839E+01
 1.7098     6.0893E+03 2.3111E+01
 1.7237     5.9366E+03 2.2348E+01
 1.7376     5.8481E+03 2.1933E+01
 1.7515     5.7330E+03 2.1459E+01
 1.7653     5.5337E+03 2.0732E+01
 1.7792     5.3790E+03 2.0186E+01
 1.7931     5.1355E+03 1.9223E+01
 1.8070     4.8165E+03 1.8292E+01
 1.8208     4.4872E+03 1.7064E+01
 1.8347     4.1644E+03 1.5752E+01
 1.8486     3.8331E+03 1.4442E+01
 1.8625     3.5308E+03 1.3491E+01
ENDDATA            165
ENDSUBENT          181
SUBENT        C0115005   20160709   20161017   20160920       C159
BIB                  4          7
REACTION   (4-BE-9(A,N)6-C-12,,MLT,,TT)
SAMPLE     1.0-mm thick pure Be disks.
ERR-ANALYS (ERR-S) Statistical uncertainty,
           (ERR-1) Normalization uncertainty, due to 8%
            uncertainty in neutron detector efficiency.
HISTORY    (20030625A) Units updated.
           (20160628A) Deleted N in SF7.
ENDBIB               7
COMMON               1          3
ERR-1
PER-CENT
 8.
ENDCOMMON            3
DATA                 3         44
EN         DATA       ERR-S
MEV        PRT/INC    PRT/INC
 0.5000     7.2831E-11 1.0137E-12
 0.5000     7.5286E-11 7.2302E-13
 0.5000     7.5002E-11 4.4602E-13
 0.5000     7.5382E-11 9.3187E-13
 0.5900     4.9589E-10 2.7741E-12
 0.6000     5.3772E-10 2.8337E-12
 0.6050     5.6315E-10 3.1747E-12
 0.6100     5.8435E-10 3.6837E-12
 0.6150     6.1714E-10 3.6156E-12
 0.6160     6.4053E-10 3.6248E-12
 0.6170     6.5488E-10 3.6667E-12
 0.6180     6.7487E-10 3.7080E-12
 0.6190     7.0417E-10 3.7670E-12
 0.6200     7.1954E-10 3.7876E-12
 0.6210     7.2763E-10 3.8617E-12
 0.6220     7.4028E-10 3.8956E-12
 0.6250     7.7118E-10 4.0440E-12
 0.6300     8.0782E-10 3.9476E-12
 0.6500     8.9562E-10 4.1896E-12
 0.7000     1.1137E-09 5.0140E-12
 0.7000     1.1211E-09 4.8567E-12
 0.7500     1.3532E-09 5.3249E-12
 0.8000     1.6411E-09 6.5500E-12
 0.8500     2.0123E-09 7.6746E-12
 0.9000     2.4734E-09 1.0913E-11
 0.9500     3.0983E-09 1.2760E-11
 1.0000     3.8945E-09 1.5986E-11
 1.0000     3.8996E-09 2.1180E-11
 1.1000     6.3492E-09 2.8393E-11
 1.2000     1.0914E-08 4.1740E-11
 1.3000     1.9512E-08 8.6762E-11
 1.4000     3.7609E-08 1.4390E-10
 1.5000     8.2823E-08 5.6422E-10
 1.6000     1.9375E-07 1.1942E-09
 1.7000     3.7480E-07 2.6574E-09
 1.8000     7.9020E-07 7.1466E-09
 1.8000     7.9185E-07 7.5200E-09
 1.8000     7.9326E-07 5.8587E-09
 1.8000     7.9396E-07 8.0143E-09
 1.9000     1.8321E-06 3.5328E-08
 2.0000     2.9827E-06 1.0198E-07
 2.1000     3.8893E-06 1.8574E-07
 2.2000     4.8172E-06 2.0666E-07
 2.3000     5.7119E-06 3.8162E-07
ENDDATA             46
ENDSUBENT           62
SUBENT        C0115006   20220530   20220823   20220823       C213
BIB                  4         23
REACTION  1(4-BE-9(A,0),,EN)
          2(4-BE-9(A,N),,WID)
          3(4-BE-9(A,N)6-C-12,,SIG,,SFC/RES)
ANALYSIS   S-factor fit as sum of 8 Breit-Wigner peaks.
           Assumed values for first peak. Energy = 0.1062 MeV and
            width = 50.9 keV taken from Cierjacks, et al., Nuc.
            Instr.Meth.169, 185 (1990), peak S = 3.395x10**4 MeV b
            taken from Caughlan and Fowler, At.Data Nucl.Data
            Tables 40, 283 (1988).
ERR-ANALYS1(ERR-1) Uncertainty associated with fit and with
            counting statistics of the data.  Does not include
            uncertainty due to assumed form of S(E).
           (ERR-2) Due to energy calibration.
          2(ERR-1) Uncertainty associated with fit and with
            counting statistics of the data.  Does not include
            uncertainty due to assumed form of S(E).
          3(ERR-1) Uncertainty associated with fit and with
            counting statistics of the data.  Does not include
            uncertainty due to assumed form of S(E).
           (ERR-2) Normalization uncertainty.  Major
            contribution is from 8% uncertainty in neutron
            detector efficiency.
HISTORY    (20220502A) REACTION 1 corrected
ENDBIB              23
COMMON               2          3
ERR-2     1ERR-2     3
PER-CENT   PER-CENT
 0.1        9.
ENDCOMMON            3
DATA                 6          7
DATA-CM   1ERR-1     1DATA-CM   2ERR-1     2DATA      3ERR-1     3
MEV        MEV        KEV        KEV        B*MEV      B*MEV
 0.1663     0.0003      18.7        0.4       5.63  +05  0.14  +05
 0.35403    0.00004     56.43       0.07      2.094 +05  0.004 +05
 0.42787    0.00001      4.681      0.019     1.388 +05  0.005 +05
 1.0776     0.0003     122.5        0.8       4.683 +05  0.019 +05
 1.2974     0.0001     148.7        0.4       2.987 +05  0.006 +05
 1.4929     0.0008     370.2        1.7       7.77  +05  0.03  +05
 1.7714     0.0006     226.         3.        2.23  +05  0.02  +05
ENDDATA              9
ENDSUBENT           41
ENDENTRY             6
