ENTRY            C0128   20010712   20011130
SUBENT        C0128001   20010712   20011130
BIB                 15         26
INSTITUTE  (1USACLA,1USATEX,1USALAS,1USAMIN,1USABNL)
REFERENCE  (J,PL/B,78,205,197809)
AUTHOR     (J.Fong,T.S.Bauer,G.Igo,G.Pauletta,R.Ridge,R.Rolfe,
           J.Soukup,C.A.Whitten Jr,G.W.Hoffmann,N.M.Hintz,
           M.A.Oothoudt,G.S.Blanpied,R.P.Liljestrand,T.Kozlowski)
TITLE      p-4He elastic scattering at 788 MeV.
FACILITY   (MESON,1USALAS) LAMPF.
INC-SOURCE (POLIS)
SAMPLE     Liquid helium in cylindrical flask.
METHOD     (PHD,TOF)
DETECTOR   (MAGSP) High resolution spectrometer.
           (TELES) Beam-target interaction monitored by
            scintillator telescopes placed at 45 and 115 degrees
            with respect to beam direction.
           Beam intensity by 3 ionization chambers and a secondary
            emission monitor.
           Horizontal beam profile monitored by multiwire chamber
            at backward angles.
MONITOR    (2-HE-4(P,EL)2-HE-4,,DA)
MONIT-REF  (,R.KLEM+,J,PL/B,70,155,1977)
CORRECTION Corrected for background.
ERR-ANALYS (ERR-S) Statistical uncertainty.
            Scale accuracy 20%.
STATUS     Data received by email from L. Ray, 12 August 1999.
           (APRVD) Approved by L. Ray, 12 July 2001.
HISTORY    (19990816C) VM
ENDBIB              26
COMMON               1          3
EN
MEV
788.
ENDCOMMON            3
ENDSUBENT           33
SUBENT        C0128002   20010711   20011130
BIB                  2          3
REACTION   (2-HE-4(P,EL)2-HE-4,,DT)
EN-SEC     Momentum given corresponds to angles of 13.3 - 165.5
            degrees.
ENDBIB               3
NOCOMMON             0          0
DATA                 3        267
-t         DATA-CM    ERR-S
GEV2/C2    MB/GEV2/C2 MB/GEV2/C2
 0.111       0.394E+02   0.79E+00
 0.114       0.364E+02   0.73E+00
 0.118       0.330E+02   0.66E+00
 0.121       0.307E+02   0.61E+00
 0.124       0.271E+02   0.54E+00
 0.127       0.247E+02   0.49E+00
 0.131       0.223E+02   0.45E+00
 0.134       0.195E+02   0.39E+00
 0.137       0.178E+02   0.36E+00
 0.141       0.157E+02   0.31E+00
 0.144       0.145E+02   0.29E+00
 0.148       0.126E+02   0.25E+00
 0.152       0.115E+02   0.23E+00
 0.155       0.103E+02   0.21E+00
 0.159       0.923E+01   0.18E+00
 0.162       0.802E+01   0.16E+00
 0.166       0.709E+01   0.14E+00
 0.170       0.614E+01   0.12E+00
 0.173       0.559E+01   0.11E+00
 0.178       0.474E+01   0.95E-01
 0.181       0.407E+01   0.81E-01
 0.185       0.359E+01   0.72E-01
 0.189       0.301E+01   0.60E-01
 0.193       0.259E+01   0.52E-01
 0.197       0.228E+01   0.46E-01
 0.201       0.213E+01   0.43E-01
 0.205       0.176E+01   0.44E-01
 0.210       0.156E+01   0.39E-01
 0.214       0.133E+01   0.27E-01
 0.218       0.119E+01   0.24E-01
 0.222       0.104E+01   0.21E-01
 0.226       0.981E+00   0.25E-01
 0.231       0.890E+00   0.22E-01
 0.235       0.845E+00   0.21E-01
 0.239       0.806E+00   0.20E-01
 0.244       0.788E+00   0.20E-01
 0.248       0.734E+00   0.18E-01
 0.253       0.745E+00   0.19E-01
 0.257       0.751E+00   0.19E-01
 0.262       0.782E+00   0.20E-01
 0.266       0.751E+00   0.19E-01
 0.271       0.809E+00   0.16E-01
 0.276       0.809E+00   0.16E-01
 0.281       0.828E+00   0.17E-01
 0.285       0.870E+00   0.17E-01
 0.290       0.854E+00   0.17E-01
 0.295       0.908E+00   0.18E-01
 0.300       0.951E+00   0.19E-01
 0.304       0.100E+01   0.20E-01
 0.309       0.992E+00   0.20E-01
 0.314       0.981E+00   0.20E-01
 0.319       0.102E+01   0.20E-01
 0.324       0.103E+01   0.21E-01
 0.329       0.103E+01   0.21E-01
 0.335       0.103E+01   0.21E-01
 0.339       0.107E+01   0.21E-01
 0.345       0.107E+01   0.21E-01
 0.350       0.107E+01   0.21E-01
 0.355       0.105E+01   0.21E-01
 0.361       0.108E+01   0.22E-01
 0.366       0.103E+01   0.21E-01
 0.371       0.102E+01   0.20E-01
 0.376       0.102E+01   0.20E-01
 0.382       0.104E+01   0.21E-01
 0.387       0.996E+00   0.20E-01
 0.392       0.101E+01   0.20E-01
 0.398       0.965E+00   0.19E-01
 0.404       0.968E+00   0.19E-01
 0.409       0.912E+00   0.18E-01
 0.414       0.899E+00   0.18E-01
 0.420       0.856E+00   0.17E-01
 0.426       0.857E+00   0.17E-01
 0.431       0.839E+00   0.17E-01
 0.437       0.814E+00   0.16E-01
 0.443       0.740E+00   0.15E-01
 0.449       0.752E+00   0.15E-01
 0.454       0.733E+00   0.15E-01
 0.460       0.702E+00   0.14E-01
 0.466       0.676E+00   0.14E-01
 0.471       0.680E+00   0.17E-01
 0.477       0.664E+00   0.17E-01
 0.483       0.583E+00   0.15E-01
 0.489       0.591E+00   0.15E-01
 0.495       0.550E+00   0.14E-01
 0.501       0.543E+00   0.11E-01
 0.507       0.520E+00   0.10E-01
 0.513       0.507E+00   0.10E-01
 0.519       0.481E+00   0.96E-02
 0.525       0.470E+00   0.94E-02
 0.532       0.443E+00   0.89E-02
 0.538       0.422E+00   0.84E-02
 0.544       0.396E+00   0.79E-02
 0.550       0.383E+00   0.77E-02
 0.556       0.358E+00   0.72E-02
 0.563       0.330E+00   0.66E-02
 0.569       0.324E+00   0.81E-02
 0.575       0.301E+00   0.75E-02
 0.581       0.282E+00   0.70E-02
 0.588       0.262E+00   0.65E-02
 0.594       0.244E+00   0.61E-02
 0.600       0.235E+00   0.47E-02
 0.607       0.223E+00   0.45E-02
 0.614       0.216E+00   0.43E-02
 0.620       0.198E+00   0.40E-02
 0.626       0.188E+00   0.38E-02
 0.633       0.178E+00   0.36E-02
 0.640       0.168E+00   0.34E-02
 0.646       0.159E+00   0.32E-02
 0.653       0.145E+00   0.29E-02
 0.659       0.137E+00   0.27E-02
 0.666       0.128E+00   0.26E-02
 0.672       0.127E+00   0.25E-02
 0.679       0.113E+00   0.23E-02
 0.686       0.110E+00   0.22E-02
 0.693       0.101E+00   0.25E-02
 0.700       0.972E-01   0.24E-02
 0.706       0.874E-01   0.22E-02
 0.713       0.848E-01   0.21E-02
 0.720       0.785E-01   0.20E-02
 0.726       0.695E-01   0.17E-02
 0.733       0.682E-01   0.17E-02
 0.740       0.687E-01   0.17E-02
 0.747       0.647E-01   0.16E-02
 0.754       0.584E-01   0.15E-02
 0.761       0.568E-01   0.14E-02
 0.768       0.512E-01   0.13E-02
 0.775       0.483E-01   0.12E-02
 0.782       0.450E-01   0.14E-02
 0.789       0.449E-01   0.13E-02
 0.796       0.420E-01   0.13E-02
 0.803       0.364E-01   0.11E-02
 0.810       0.368E-01   0.11E-02
 0.817       0.353E-01   0.11E-02
 0.824       0.330E-01   0.99E-03
 0.831       0.320E-01   0.96E-03
 0.838       0.304E-01   0.91E-03
 0.845       0.279E-01   0.98E-03
 0.853       0.284E-01   0.99E-03
 0.860       0.274E-01   0.96E-03
 0.867       0.253E-01   0.89E-03
 0.874       0.244E-01   0.73E-03
 0.881       0.240E-01   0.72E-03
 0.889       0.230E-01   0.69E-03
 0.896       0.208E-01   0.62E-03
 0.903       0.210E-01   0.63E-03
 0.910       0.207E-01   0.62E-03
 0.918       0.198E-01   0.59E-03
 0.925       0.195E-01   0.58E-03
 0.932       0.186E-01   0.56E-03
 0.940       0.181E-01   0.54E-03
 0.947       0.170E-01   0.51E-03
 0.954       0.175E-01   0.52E-03
 0.962       0.165E-01   0.50E-03
 0.969       0.163E-01   0.49E-03
 0.977       0.165E-01   0.49E-03
 0.984       0.158E-01   0.47E-03
 0.991       0.159E-01   0.48E-03
 0.999       0.151E-01   0.45E-03
 1.007       0.144E-01   0.43E-03
 1.014       0.149E-01   0.45E-03
 1.021       0.150E-01   0.45E-03
 1.030       0.144E-01   0.43E-03
 1.038       0.134E-01   0.40E-03
 1.046       0.137E-01   0.41E-03
 1.053       0.136E-01   0.41E-03
 1.060       0.134E-01   0.40E-03
 1.068       0.132E-01   0.40E-03
 1.077       0.128E-01   0.38E-03
 1.085       0.126E-01   0.38E-03
 1.092       0.123E-01   0.37E-03
 1.100       0.114E-01   0.34E-03
 1.107       0.117E-01   0.35E-03
 1.115       0.110E-01   0.33E-03
 1.122       0.108E-01   0.32E-03
 1.130       0.104E-01   0.31E-03
 1.138       0.108E-01   0.32E-03
 1.146       0.103E-01   0.31E-03
 1.153       0.997E-02   0.30E-03
 1.161       0.960E-02   0.29E-03
 1.169       0.978E-02   0.29E-03
 1.176       0.931E-02   0.28E-03
 1.184       0.867E-02   0.26E-03
 1.192       0.942E-02   0.28E-03
 1.199       0.862E-02   0.26E-03
 1.207       0.851E-02   0.26E-03
 1.215       0.811E-02   0.24E-03
 1.223       0.812E-02   0.24E-03
 1.230       0.774E-02   0.23E-03
 1.238       0.721E-02   0.22E-03
 1.246       0.741E-02   0.22E-03
 1.254       0.744E-02   0.22E-03
 1.262       0.724E-02   0.22E-03
 1.270       0.704E-02   0.21E-03
 1.277       0.649E-02   0.19E-03
 1.285       0.656E-02   0.20E-03
 1.293       0.636E-02   0.19E-03
 1.300       0.564E-02   0.17E-03
 1.308       0.573E-02   0.17E-03
 1.316       0.565E-02   0.17E-03
 1.324       0.561E-02   0.17E-03
 1.332       0.557E-02   0.17E-03
 1.340       0.491E-02   0.15E-03
 1.348       0.519E-02   0.16E-03
 1.356       0.475E-02   0.14E-03
 1.382       0.475E-02   0.12E-03
 1.397       0.372E-02   0.93E-04
 1.421       0.360E-02   0.90E-04
 1.445       0.315E-02   0.79E-04
 1.461       0.286E-02   0.86E-04
 1.484       0.256E-02   0.77E-04
 1.508       0.243E-02   0.73E-04
 1.524       0.227E-02   0.68E-04
 1.547       0.217E-02   0.65E-04
 1.571       0.196E-02   0.59E-04
 1.587       0.168E-02   0.42E-04
 1.611       0.145E-02   0.36E-04
 1.634       0.138E-02   0.34E-04
 1.650       0.121E-02   0.36E-04
 1.674       0.112E-02   0.34E-04
 1.698       0.103E-02   0.31E-04
 1.714       0.963E-03   0.34E-04
 1.737       0.870E-03   0.30E-04
 1.761       0.763E-03   0.27E-04
 1.777       0.667E-03   0.27E-04
 1.800       0.639E-03   0.26E-04
 1.824       0.572E-03   0.23E-04
 1.863       0.608E-03   0.18E-04
 1.925       0.407E-03   0.12E-04
 1.987       0.340E-03   0.10E-04
 2.048       0.284E-03   0.99E-05
 2.109       0.233E-03   0.93E-05
 2.170       0.187E-03   0.75E-05
 2.230       0.153E-03   0.53E-05
 2.289       0.133E-03   0.60E-05
 2.347       0.132E-03   0.59E-05
 2.424       0.892E-04   0.58E-05
 2.500       0.689E-04   0.45E-05
 2.574       0.573E-04   0.40E-05
 2.646       0.543E-04   0.35E-05
 2.717       0.386E-04   0.31E-05
 2.786       0.325E-04   0.24E-05
 2.903       0.249E-04   0.25E-05
 2.999       0.163E-04   0.20E-05
 3.107       0.138E-04   0.17E-05
 3.208       0.973E-05   0.13E-05
 3.318       0.580E-05   0.81E-06
 3.420       0.549E-05   0.12E-05
 3.445       0.577E-05   0.92E-06
 3.515       0.869E-05   0.12E-05
 3.560       0.897E-05   0.14E-05
 3.614       0.109E-04   0.15E-05
 3.665       0.117E-04   0.14E-05
 3.714       0.154E-04   0.20E-05
 3.812       0.134E-04   0.24E-05
 3.845       0.155E-04   0.23E-05
 3.905       0.165E-04   0.20E-05
 3.985       0.858E-05   0.15E-05
 4.009       0.124E-04   0.20E-05
 4.043       0.109E-04   0.18E-05
 4.073       0.853E-05   0.16E-05
 4.091       0.975E-05   0.27E-05
 4.124       0.234E-04   0.35E-05
 4.146       0.313E-04   0.50E-05
 4.165       0.397E-04   0.48E-05
 4.181       0.597E-04   0.66E-05
 4.188       0.596E-04   0.66E-05
 4.192       0.632E-04   0.57E-05
ENDDATA            269
ENDSUBENT          277
ENDENTRY             2
