ENTRY            C0148   19990928   20000119
SUBENT        C0148001   19990928   20000119
BIB                 12         30
INSTITUTE  (1USAINU,1USAMRY,1USAVIR,1USAGEO)
REFERENCE  (J,PR/C,47,1615,199304)
           (T,SIEFERT,1990)
AUTHOR     (H.SEIFERT,J.J.KELLY,A.E.FELDMAN,B.S.FLANDERS,
           M.A.KHANDAKER,Q.CHEN,A.D.BACHER,G.P.A.BERG,
           E.J.STEPHENSON,P.KAREN,B.E.NORUM,P.WELCH,A.SCOTT)
TITLE      Effective interaction for 16O(p,p') and 40Ca(p,p')
            at E(p) = 200 MeV
FACILITY   (CYCLO,1USAINU) Indiana University Cyclotron Facility,
            high-resolutiom K600 spectrometer.
INC-SOURCE (POLIS) Average beam polarization 72-77% for spin up
            and 74-79% with spin down.
METHOD     Spectra analyzed using ALLFIT program.
DETECTOR   (SCIN) Protons detected using 2 multiwire vertical
            drift chambers, and 2 plastic scintillators.
           Beam charge measured with Faraday cup.
           Beam polarization measured periodically using low-
            energy 4He polarimeter.
CORRECTION Corrected for background.
ERR-ANALYS (DATA-ERR) Uncertainties given include statistical and
            fitting uncertainies and uncertainties in beam
            polarization.
           Cross section reproducibility about 3%.
           Normalization uncertainty estimated at 5%.
STATUS     Data of H. Seifert taken from WWW site of J. J. Kelly,
            4/15/97.
           (APRVD) Approved by J.J.Kelly, 97/5/7.
HISTORY    (19970421C)
           (19990928A) Updated to new date formalism, reference
             added.
ENDBIB              30
COMMON               2          3
EN         EN-ERR
MEV        MEV
201.4        0.2
ENDCOMMON            3
ENDSUBENT           37
SUBENT        C0148002     970421
BIB                  3          3
REACTION   (8-O-16(P,EL)8-O-16,,DA)
SAMPLE     BeO target, thickness 22.3 mg/cm2.
EN-SEC     Excitation energy resolution 50-80 keV FWHM.
ENDBIB               3
NOCOMMON             0          0
DATA                 3         30
ANG-CM     DATA-CM    DATA-ERR
ADEG       MB/SR      PER-CENT
   6.60      3.551E+02   1.08
   8.21      3.607E+02   0.89
   9.82      2.766E+02   0.93
  11.43      2.466E+02   0.72
  13.04      1.817E+02   0.77
  14.65      1.033E+02   0.72
  16.26      6.155E+01   1.30
  19.48      1.948E+01   1.75
  19.63      1.793E+01   0.87
  21.09      1.136E+01   0.93
  21.24      1.064E+01   3.43
  22.85      6.475E+00   0.90
  25.52      3.121E+00   0.90
  28.73      1.926E+00   1.04
  30.33      1.511E+00   0.91
  31.93      1.311E+00   1.27
  33.53      1.099E+00   0.84
  35.92      8.115E-01   1.10
  36.72      7.812E-01   1.09
  39.11      5.569E-01   1.47
  39.90      4.952E-01   0.87
  42.28      3.378E-01   1.72
  43.08      2.839E-01   1.28
  46.25      1.214E-01   1.23
  48.62      7.179E-02   1.63
  49.41      5.752E-02   1.90
  51.77      3.046E-02   1.87
  52.56      2.550E-02   1.10
  54.92      1.712E-02   1.96
  58.84      1.408E-02   1.07
ENDDATA             32
ENDSUBENT           40
SUBENT        C0148003     970421
BIB                  3          3
REACTION   (8-O-16(P,INL)8-O-16,PAR,DA)
SAMPLE     BeO target, thickness 22.3 mg/cm2.
EN-SEC     Excitation energy resolution 50-80 keV FWHM.
ENDBIB               3
NOCOMMON             0          0
DATA                 4        582
Q-VAL      ANG-CM     DATA-CM    DATA-ERR
MEV        ADEG       MB/SR      PER-CENT
 -6.049       6.31      5.491E-03  76.20
 -6.049       8.22      4.892E-02  16.76
 -6.049       9.83      9.247E-02   8.27
 -6.049      11.44      7.694E-02  23.69
 -6.049      13.06      1.723E-01   5.18
 -6.049      14.67      1.578E-01   5.46
 -6.049      16.28      1.635E-01  17.97
 -6.049      17.89      1.568E-01   9.30
 -6.049      19.50      1.191E-01  22.49
 -6.049      19.65      1.101E-01   8.04
 -6.049      21.10      6.102E-02  46.32
 -6.049      21.26      6.808E-02  21.02
 -6.049      22.87      6.987E-02  20.78
 -6.049      25.55      6.241E-02  13.35
 -6.049      27.15      4.789E-02  49.91
 -6.049      28.75      3.386E-02  16.09
 -6.049      29.55      4.473E-02  14.37
 -6.049      30.36      3.277E-02  12.61
 -6.049      31.96      3.136E-02  12.24
 -6.049      32.76      3.029E-02  13.87
 -6.049      33.56      2.532E-02   8.62
 -6.049      39.14      2.302E-02  12.30
 -6.049      39.93      1.522E-02   6.96
 -6.049      42.32      1.180E-02  16.05
 -6.049      43.11      1.664E-02   5.03
 -6.049      46.28      8.072E-03   5.83
 -6.130       6.30      4.315E-02  16.05
 -6.130       8.22      1.487E-01   4.28
 -6.130       9.83      3.965E-01   2.53
 -6.130      11.44      6.817E-01   3.21
 -6.130      13.06      1.096E+00   3.07
 -6.130      14.67      1.558E+00   2.52
 -6.130      16.28      2.013E+00   1.95
 -6.130      17.89      2.519E+00   3.13
 -6.130      19.50      2.724E+00   3.30
 -6.130      19.65      2.909E+00   1.85
 -6.130      21.10      3.127E+00   1.96
 -6.130      21.26      3.190E+00   1.58
 -6.130      22.87      3.136E+00   2.51
 -6.130      25.55      3.066E+00   0.98
 -6.130      27.15      2.748E+00   6.76
 -6.130      28.75      2.719E+00   0.85
 -6.130      30.36      2.365E+00   1.17
 -6.130      31.96      2.133E+00   0.97
 -6.130      32.76      1.880E+00   0.74
 -6.130      33.56      1.911E+00   1.76
 -6.130      35.95      1.432E+00   0.96
 -6.130      36.75      1.342E+00   1.90
 -6.130      39.14      9.635E-01   1.15
 -6.130      39.94      8.506E-01   0.58
 -6.130      42.32      5.298E-01   1.41
 -6.130      43.11      4.818E-01   0.84
 -6.130      46.29      2.267E-01   0.65
 -6.130      49.45      1.229E-01   1.19
 -6.130      51.81      6.301E-02   1.41
 -6.130      52.60      6.099E-02   0.76
 -6.130      54.96      3.682E-02   2.14
 -6.130      58.88      2.088E-02   0.86
 -6.917       6.31      1.528E-01   6.71
 -6.917       8.22      6.361E-01   1.58
 -6.917       9.83      1.105E+00   1.44
 -6.917      11.45      1.449E+00   1.15
 -6.917      13.06      2.022E+00   6.38
 -6.917      14.67      2.006E+00   6.28
 -6.917      16.28      1.725E+00   4.06
 -6.917      19.50      1.299E+00   3.54
 -6.917      19.65      1.277E+00   3.55
 -6.917      21.11      1.108E+00   3.42
 -6.917      21.26      1.076E+00   5.29
 -6.917      22.87      7.891E-01   4.17
 -6.917      25.55      4.340E-01   2.76
 -6.917      27.15      2.772E-01   1.98
 -6.917      28.76      1.870E-01   4.69
 -6.917      30.36      1.289E-01   4.70
 -6.917      31.96      8.542E-02   5.34
 -6.917      32.76      6.835E-02   4.20
 -6.917      33.56      6.179E-02   2.21
 -6.917      35.96      3.897E-02   5.81
 -6.917      36.75      3.760E-02   6.04
 -6.917      39.14      3.107E-02   8.98
 -6.917      39.94      3.312E-02  10.58
 -6.917      42.32      3.824E-02   5.93
 -6.917      43.12      3.486E-02   2.19
 -6.917      46.29      2.509E-02   7.12
 -6.917      48.66      1.797E-02   4.88
 -6.917      49.45      1.436E-02   8.32
 -6.917      51.82      1.008E-02   6.52
 -6.917      52.61      8.738E-03   3.73
 -6.917      54.97      3.949E-03   6.50
 -6.917      58.89      1.569E-03   5.39
 -7.117       6.31      4.897E-02  10.44
 -7.117       8.22      4.281E-02  10.08
 -7.117       9.83      5.670E-02   9.71
 -7.117      11.45      1.053E-01   6.86
 -7.117      13.06      1.615E-01  18.69
 -7.117      14.67      2.480E-01   4.00
 -7.117      16.28      3.228E-01   8.53
 -7.117      19.50      5.652E-01   4.06
 -7.117      19.65      5.889E-01   2.77
 -7.117      21.11      7.824E-01   4.49
 -7.117      21.26      7.228E-01   2.50
 -7.117      22.87      7.690E-01   2.56
 -7.117      25.55      7.412E-01   2.68
 -7.117      27.15      6.866E-01   1.12
 -7.117      28.76      6.264E-01   1.56
 -7.117      30.36      5.337E-01   1.91
 -7.117      31.96      4.767E-01   2.09
 -7.117      32.76      4.067E-01   1.54
 -7.117      33.56      3.980E-01   0.80
 -7.117      35.96      2.674E-01   1.93
 -7.117      36.75      2.202E-01   1.09
 -7.117      39.14      1.398E-01   3.30
 -7.117      39.94      1.189E-01   1.69
 -7.117      43.12      5.411E-02   6.53
 -7.117      46.29      2.199E-02   3.47
 -7.117      48.66      1.295E-02   5.50
 -7.117      49.45      1.108E-02  10.82
 -7.117      52.61      6.758E-03   5.21
 -7.117      54.97      5.761E-03   6.82
 -7.117      58.89      2.798E-03   3.42
 -8.872       6.31      2.399E-02  16.82
 -8.872       8.22      2.815E-02  12.42
 -8.872       9.84      2.421E-02  15.36
 -8.872      11.45      2.542E-02  16.83
 -8.872      13.06      3.545E-02  16.06
 -8.872      14.67      2.886E-02  17.90
 -8.872      16.28      2.073E-02  23.10
 -8.872      17.89      3.017E-02  15.30
 -8.872      19.50      3.088E-02  29.30
 -8.872      19.66      3.579E-02  15.34
 -8.872      21.27      5.114E-02  15.97
 -8.872      22.88      5.672E-02   7.63
 -8.872      25.56      5.752E-02   5.41
 -8.872      27.16      6.501E-02   5.97
 -8.872      28.77      5.362E-02   9.75
 -8.872      30.37      4.400E-02   5.16
 -8.872      31.97      5.040E-02   9.32
 -8.872      32.77      3.775E-02   8.23
 -8.872      33.57      3.844E-02   3.58
 -8.872      35.97      2.273E-02   9.02
 -8.872      36.76      2.384E-02   4.41
 -8.872      39.15      1.342E-02  14.83
 -8.872      39.95      1.246E-02   9.50
 -8.872      42.34      6.107E-03  19.38
 -8.872      43.13      7.076E-03   5.81
 -8.872      46.30      3.305E-03   9.14
 -8.872      49.47      3.225E-03  11.77
 -8.872      52.62      9.876E-04  11.36
 -8.872      54.98      1.111E-03   9.90
 -9.585       8.22      1.453E-02  83.49
 -9.585      13.06      7.998E-02  75.20
 -9.585      28.77      3.433E-02  70.12
 -9.585      29.57      3.828E-02  69.28
 -9.585      33.57      7.571E-02  30.80
 -9.585      39.16      2.357E-02  29.73
 -9.585      39.95      1.429E-02  15.83
 -9.585      42.34      9.546E-03  78.00
 -9.585      46.31      8.508E-03  11.18
 -9.585      48.68      5.835E-03  39.51
 -9.585      49.47      1.889E-03  75.32
 -9.845       6.31      4.525E-03  74.16
 -9.845       8.22      9.675E-03  31.02
 -9.845       9.84      2.507E-02  14.75
 -9.845      11.45      3.569E-02  44.05
 -9.845      13.06      5.399E-02  20.98
 -9.845      14.68      5.920E-02   8.17
 -9.845      16.29      6.986E-02   8.12
 -9.845      17.90      6.881E-02   9.32
 -9.845      19.51      8.876E-02   7.16
 -9.845      19.66      9.234E-02   7.71
 -9.845      21.12      7.146E-02  19.21
 -9.845      21.27      8.512E-02   8.18
 -9.845      22.88      8.235E-02  11.81
 -9.845      25.56      7.605E-02   8.71
 -9.845      27.17      6.702E-02   4.84
 -9.845      28.77      6.735E-02   4.86
 -9.845      29.57      6.904E-02   7.93
 -9.845      30.37      5.497E-02   6.66
 -9.845      31.97      6.228E-02   8.41
 -9.845      32.77      5.943E-02   6.48
 -9.845      33.57      5.687E-02   5.60
 -9.845      35.97      3.604E-02   8.21
 -9.845      36.77      3.309E-02   4.84
 -9.845      39.16      2.378E-02  10.63
 -9.845      39.96      2.308E-02   3.97
 -9.845      42.34      1.128E-02  13.73
 -9.845      43.14      1.250E-02  12.41
 -9.845      46.31      6.695E-03   7.37
 -9.845      48.68      3.123E-03  16.52
 -9.845      49.47      3.019E-03   6.40
 -9.845      52.63      1.160E-03  21.10
-10.356       8.22      6.062E-03  60.94
-10.356       9.84      7.495E-03  54.14
-10.356      11.45      1.368E-02  43.75
-10.356      14.68      3.290E-02  15.39
-10.356      16.29      3.823E-02  22.56
-10.356      17.90      5.526E-02  14.44
-10.356      19.51      9.228E-02  10.58
-10.356      19.66      7.611E-02   9.82
-10.356      21.12      8.579E-02  18.81
-10.356      21.27      9.240E-02  11.72
-10.356      22.88      1.170E-01   5.31
-10.356      25.56      1.297E-01   3.83
-10.356      27.17      1.245E-01   7.61
-10.356      28.77      1.284E-01   3.37
-10.356      29.57      1.447E-01   4.79
-10.356      30.37      1.258E-01   2.18
-10.356      31.98      1.355E-01   5.19
-10.356      32.78      1.288E-01   3.78
-10.356      33.58      1.225E-01   2.04
-10.356      35.97      9.726E-02   4.62
-10.356      36.77      8.406E-02   2.81
-10.356      39.16      6.089E-02   7.07
-10.356      39.96      5.710E-02   7.66
-10.356      42.35      2.864E-02   8.27
-10.356      43.14      3.348E-02   5.39
-10.356      46.31      1.514E-02   9.91
-10.356      48.69      1.033E-02   7.01
-10.356      49.48      7.709E-03   3.64
-10.356      52.63      3.732E-03   4.44
-10.356      54.99      3.696E-03  10.96
-10.957       6.31      3.361E-02  21.37
-10.957       8.23      3.642E-02   9.60
-10.957       9.84      4.439E-02   9.19
-10.957      11.45      4.037E-02  11.27
-10.957      13.07      5.826E-02  10.25
-10.957      14.68      4.818E-02  10.61
-10.957      16.29      3.194E-02  34.11
-10.957      17.90      2.376E-02  22.04
-10.957      19.51      1.626E-02  36.00
-10.957      19.67      1.363E-02  38.98
-10.957      21.28      1.189E-02  35.81
-10.957      22.88      7.540E-03  88.76
-10.957      25.56      8.042E-03  23.01
-10.957      27.17      8.822E-03  27.31
-10.957      28.77      9.298E-03  22.66
-10.957      29.58      1.369E-02  25.95
-10.957      30.38      8.380E-03  14.50
-10.957      31.98      5.409E-03  49.44
-10.957      32.78      1.148E-02  18.66
-10.957      33.58      1.193E-02  11.65
-10.957      35.98      6.016E-03  31.27
-10.957      36.77      1.055E-02  19.84
-10.957      39.17      5.906E-03  48.65
-10.957      39.96      3.818E-03  27.16
-10.957      43.14      2.028E-03  45.89
-10.957      46.32      1.350E-03  21.53
-10.957      49.48      6.738E-04  55.98
-10.957      55.00      5.892E-04  47.86
-11.100      19.67      5.545E-02  56.41
-11.100      21.28      3.779E-02  37.04
-11.100      22.89      5.230E-02  60.61
-11.100      25.56      6.134E-02  21.67
-11.100      27.17      7.876E-02  25.28
-11.100      28.77      6.400E-02  32.47
-11.100      29.58      8.406E-02  62.45
-11.100      30.38      7.228E-02   9.62
-11.100      31.98      7.712E-02  21.36
-11.100      32.78      7.202E-02  42.55
-11.100      33.58      6.063E-02  26.61
-11.100      39.17      5.056E-02  52.26
-11.100      39.96      3.318E-02  45.95
-11.100      43.14      2.693E-02  34.48
-11.100      46.32      1.452E-02  31.23
-11.100      48.69      1.445E-02  57.08
-11.100      49.48      1.296E-02  67.60
-11.100      55.00      2.932E-03   8.87
-11.520       6.31      1.115E-01   6.74
-11.520       8.23      3.551E-01   2.40
-11.520       9.84      6.260E-01   1.99
-11.520      11.45      8.098E-01   2.88
-11.520      13.07      1.155E+00   4.40
-11.520      14.68      1.181E+00   6.39
-11.520      16.29      1.037E+00   2.15
-11.520      19.51      8.172E-01   3.58
-11.520      19.67      8.207E-01   2.21
-11.520      21.12      6.761E-01   4.60
-11.520      21.28      6.885E-01   5.36
-11.520      22.89      5.191E-01   2.85
-11.520      25.57      3.325E-01   4.37
-11.520      27.17      2.101E-01   9.14
-11.520      28.78      1.718E-01   2.98
-11.520      30.38      1.178E-01   2.41
-11.520      31.98      8.878E-02   6.98
-11.520      32.78      8.397E-02   4.91
-11.520      33.58      6.700E-02   3.33
-11.520      35.98      4.324E-02   7.93
-11.520      36.78      4.288E-02   4.30
-11.520      39.97      3.745E-02   4.72
-11.520      43.15      2.981E-02   5.34
-11.520      46.32      2.594E-02   2.82
-11.520      48.69      2.120E-02   4.84
-11.520      49.48      1.944E-02   8.19
-11.520      52.64      1.148E-02   2.34
-12.049       6.31      4.274E-02  10.44
-12.049       8.23      3.475E-02  10.39
-12.049       9.84      6.045E-02   7.41
-12.049      11.45      7.976E-02   6.58
-12.049      13.07      1.701E-01  10.44
-12.049      14.68      1.686E-01  11.43
-12.049      16.29      2.104E-01   6.09
-12.049      17.90      2.142E-01   6.87
-12.049      19.51      2.162E-01   6.46
-12.049      19.67      1.832E-01   4.63
-12.049      21.12      1.565E-01  10.20
-12.049      21.28      1.687E-01   6.09
-12.049      22.89      1.458E-01   6.29
-12.049      25.57      1.065E-01  12.96
-12.049      27.17      7.250E-02   4.04
-12.049      28.78      7.240E-02   9.96
-12.049      30.38      4.640E-02   6.83
-12.049      31.98      3.879E-02   9.60
-12.049      32.78      3.196E-02   7.60
-12.049      33.58      2.597E-02  17.59
-12.049      35.98      1.317E-02  13.91
-12.049      36.78      1.460E-02  13.30
-12.049      39.17      1.411E-02  15.80
-12.049      39.97      1.159E-02  15.85
-12.049      43.15      1.013E-02   7.16
-12.049      46.32      6.709E-03   9.48
-12.049      48.70      5.757E-03  11.96
-12.049      49.49      4.430E-03  24.90
-12.049      52.64      1.293E-03  11.99
-12.440       6.31      1.592E-02  45.77
-12.440       8.23      2.061E-02  32.71
-12.440       9.84      3.923E-02  20.24
-12.440      11.46      1.375E-02  67.50
-12.440      14.68      1.213E-02  68.10
-12.440      19.51      8.256E-02  14.63
-12.440      19.67      7.508E-02  22.77
-12.440      21.12      1.059E-01  31.88
-12.440      21.28      9.800E-02   9.89
-12.440      22.89      7.072E-02  12.99
-12.440      25.57      5.400E-02  16.16
-12.440      27.18      6.315E-02   7.31
-12.440      28.78      5.675E-02   8.17
-12.440      30.38      4.305E-02   6.35
-12.440      31.99      4.459E-02  14.53
-12.440      32.79      4.717E-02  10.45
-12.440      33.59      2.930E-02   9.28
-12.440      35.98      2.439E-02  15.54
-12.440      36.78      1.515E-02  21.89
-12.440      39.17      1.544E-02  35.80
-12.440      39.97      1.108E-02  13.82
-12.440      42.36      5.640E-03  52.34
-12.440      43.15      1.069E-02  15.43
-12.440      46.33      6.304E-03  34.75
-12.440      49.49      4.303E-03  46.96
-12.530       6.31      1.044E-01   5.56
-12.530       8.23      1.785E-01   3.21
-12.530      13.07      2.857E-01   5.37
-12.530      14.68      2.465E-01   4.26
-12.530      16.29      1.974E-01   5.33
-12.530      17.90      1.709E-01   5.88
-12.530      19.51      1.451E-01  14.37
-12.530      19.67      1.301E-01   5.81
-12.530      21.12      1.208E-01  19.16
-12.530      21.28      1.107E-01   9.97
-12.530      22.89      9.535E-02  10.26
-12.530      25.57      4.915E-02  10.14
-12.530      27.18      1.665E-02  29.70
-12.530      28.78      1.591E-02  17.58
-12.530      29.58      1.532E-02  62.04
-12.530      30.38      9.710E-03  58.05
-12.530      31.99      7.506E-03  48.46
-12.530      32.79      7.120E-03  46.26
-12.530      33.59      6.618E-03  35.69
-12.530      35.98      3.277E-03  71.80
-12.530      36.78      1.181E-02  17.83
-12.530      39.18      7.395E-03  52.54
-12.530      39.97      5.679E-03  16.83
-12.530      42.36      2.625E-03  69.00
-12.530      46.33      3.207E-03  16.40
-12.530      49.49      1.924E-03  51.58
-12.530      52.65      1.033E-03  29.55
-12.796       6.31      3.928E-02  14.93
-12.796       8.23      1.164E-02  38.14
-12.796      14.68      5.890E-03  99.42
-12.796      17.91      1.620E-02  36.41
-12.796      19.52      1.508E-02  75.74
-12.796      19.67      7.659E-03  96.32
-12.796      21.28      2.928E-02  49.78
-12.796      22.89      5.129E-02  10.03
-12.796      25.57      4.734E-02   7.18
-12.796      27.18      2.627E-02  16.65
-12.796      28.78      2.251E-02  30.82
-12.796      29.58      2.444E-02  22.71
-12.796      30.39      1.899E-02  10.30
-12.796      31.99      2.329E-02  19.42
-12.796      32.79      2.708E-02  12.54
-12.796      33.59      1.454E-02  10.00
-12.796      35.99      1.104E-02  22.88
-12.796      36.78      8.049E-03  28.20
-12.796      39.18      1.332E-02  21.42
-12.796      39.97      4.768E-03  25.32
-12.796      42.36      6.993E-03  30.36
-12.796      43.16      3.064E-03  23.64
-12.796      46.33      1.996E-03  66.03
-12.796      49.49      2.808E-03  31.58
-12.969       6.31      5.019E-01   2.79
-12.969       8.23      6.650E-01   2.39
-12.969      13.07      7.501E-01   1.91
-12.969      14.68      6.087E-01   2.71
-12.969      16.29      3.988E-01  12.13
-12.969      17.91      2.953E-01   3.76
-12.969      19.52      2.151E-01   5.32
-12.969      19.67      1.781E-01   5.64
-12.969      21.28      1.387E-01  13.10
-12.969      22.89      6.497E-02  18.16
-12.969      25.57      3.997E-02  16.10
-12.969      27.18      3.128E-02  11.26
-12.969      28.78      2.521E-02  14.40
-12.969      30.39      2.844E-02  23.63
-12.969      31.99      3.398E-02  13.26
-12.969      32.79      2.035E-02  20.81
-12.969      33.59      2.253E-02   7.64
-12.969      35.99      1.921E-02  13.74
-12.969      36.79      2.102E-02  47.06
-12.969      39.18      1.933E-02  25.96
-12.969      39.97      8.771E-03  17.13
-12.969      42.36      3.725E-03  54.68
-12.969      43.16      6.863E-03  49.15
-12.969      46.33      2.267E-03  32.91
-12.969      49.49      1.054E-03  88.97
-13.080       6.31      2.525E-01   5.70
-13.080       8.23      2.812E-01   5.06
-13.080       9.84      3.627E-01   4.53
-13.080      11.46      3.336E-01   7.93
-13.080      13.07      4.879E-01   4.54
-13.080      14.68      3.953E-01  11.13
-13.080      16.29      3.717E-01  10.18
-13.080      17.91      3.951E-01   4.17
-13.080      19.52      3.598E-01   5.27
-13.080      19.67      3.340E-01   6.32
-13.080      21.13      4.294E-01   8.43
-13.080      21.28      3.405E-01   9.21
-13.080      22.89      3.441E-01   3.67
-13.080      25.57      3.472E-01   2.53
-13.080      27.18      2.761E-01  12.07
-13.080      28.78      2.401E-01   3.32
-13.080      30.39      1.775E-01   4.35
-13.080      31.99      1.513E-01   6.58
-13.080      32.79      1.376E-01   5.38
-13.080      33.59      1.200E-01   7.60
-13.080      35.99      6.969E-02   7.53
-13.080      36.79      6.233E-02  14.34
-13.080      39.18      4.812E-02  16.07
-13.080      39.98      4.073E-02   5.27
-13.080      42.36      2.042E-02  19.11
-13.080      43.16      2.317E-02   7.42
-13.080      46.33      1.124E-02   7.83
-13.080      49.50      1.148E-02  11.50
-13.080      52.65      4.756E-03  11.90
-13.259       6.31      3.046E-02  18.07
-13.259       8.23      2.989E-02  37.70
-13.259       9.84      3.282E-02  18.64
-13.259      11.46      5.311E-02  28.21
-13.259      13.07      9.310E-02   8.33
-13.259      14.68      9.156E-02  13.49
-13.259      16.30      8.979E-02  19.86
-13.259      17.91      1.090E-01  32.85
-13.259      19.52      1.163E-01  22.62
-13.259      19.67      1.477E-01   6.76
-13.259      21.13      1.672E-01  17.60
-13.259      21.28      1.350E-01   5.80
-13.259      22.89      1.257E-01  11.06
-13.259      25.57      1.158E-01   7.89
-13.259      27.18      9.616E-02   4.34
-13.259      28.78      7.891E-02   5.91
-13.259      29.59      5.978E-02  14.02
-13.259      30.39      4.823E-02   5.06
-13.259      31.99      4.128E-02  13.63
-13.259      32.79      3.509E-02  10.79
-13.259      33.59      2.401E-02  10.91
-13.259      35.99      1.498E-02  18.70
-13.259      39.18      7.920E-03  38.89
-13.259      39.98      7.656E-03  13.76
-13.259      43.16      6.404E-03  13.65
-13.259      46.33      3.905E-03  12.42
-13.259      49.50      4.196E-03  18.13
-13.259      52.65      2.001E-03  22.73
-13.664       6.31      1.728E-02  38.44
-13.664       8.23      1.119E-02  69.31
-13.664       9.84      1.822E-02  33.27
-13.664      11.46      1.262E-02  57.06
-13.664      13.07      3.270E-02  43.65
-13.664      14.68      2.369E-02  29.72
-13.664      16.30      3.369E-02  15.42
-13.664      17.91      3.125E-02  35.93
-13.664      19.52      2.025E-02  40.53
-13.664      19.67      2.316E-02  35.36
-13.664      21.13      1.964E-02  87.82
-13.664      25.57      1.028E-02  33.62
-13.664      27.18      2.000E-02  17.25
-13.664      28.79      2.442E-02  19.11
-13.664      29.59      3.516E-02  18.58
-13.664      30.39      3.339E-02   9.74
-13.664      31.99      2.771E-02  20.47
-13.664      32.79      1.020E-02  34.44
-13.664      35.99      2.826E-03  99.07
-13.664      42.37      2.135E-02  14.09
-13.664      46.33      6.919E-04  92.57
-13.869       6.31      1.248E-02  79.46
-13.869      13.07      3.384E-02  26.72
-13.869      14.68      4.614E-02  64.91
-13.869      16.30      5.573E-02  17.86
-13.869      17.91      5.792E-02  37.05
-13.869      19.52      7.058E-02  15.19
-13.869      19.67      7.045E-02  24.74
-13.869      21.29      5.115E-02  40.20
-13.869      22.89      7.695E-02  11.24
-13.869      25.58      6.371E-02  11.82
-13.869      27.18      7.202E-02   7.14
-13.869      28.79      9.415E-02   9.79
-13.869      29.59      9.889E-02   9.05
-13.869      30.39      1.102E-01   5.42
-13.869      31.99      1.184E-01   7.02
-13.869      33.59      9.823E-02   2.94
-13.869      35.99      7.757E-02   6.11
-13.869      36.79      9.388E-02   7.52
-13.869      39.18      7.204E-02   7.67
-13.869      39.98      7.893E-02   2.60
-13.869      43.16      5.839E-02   6.70
-13.869      46.34      3.302E-02   5.34
-13.869      49.50      2.000E-02   7.44
-13.869      52.66      1.400E-02   5.68
-13.980       8.23      3.596E-02  61.23
-13.980      14.69      1.245E-02  64.09
-13.980      19.52      3.217E-02  43.51
-13.980      21.29      2.444E-02  34.70
-13.980      22.90      2.787E-02  41.89
-13.980      25.58      1.699E-02  68.40
-13.980      29.59      1.644E-02  55.23
-13.980      30.39      4.210E-03  71.11
-13.980      36.79      3.842E-02  13.21
-13.980      46.34      4.898E-03  19.57
-13.980      49.50      2.054E-03  84.09
-14.032       8.23      4.789E-02  36.49
-14.032       9.84      2.562E-02  71.47
-14.032      14.69      4.704E-02  49.06
-14.032      16.30      8.410E-02  38.59
-14.032      17.91      1.288E-01  20.10
-14.032      19.52      1.209E-01  29.32
-14.032      19.67      8.484E-02  28.85
-14.032      21.13      1.530E-01  41.12
-14.032      21.29      5.875E-02  98.77
-14.032      22.90      9.139E-02  20.92
-14.032      25.58      5.379E-02  32.64
-14.032      27.18      4.191E-02  39.23
-14.032      28.79      2.684E-02  45.60
-14.032      33.59      3.533E-02  13.81
-14.032      39.18      1.345E-02  73.86
-14.302      13.07      2.148E-02  83.18
-14.302      14.69      3.162E-02  53.83
-14.302      19.68      1.200E-02  71.88
-14.302      21.29      1.579E-02  55.96
-14.302      25.58      8.073E-03  34.70
-14.302      27.18      9.165E-03  56.04
-14.302      28.79      5.782E-03  41.33
-14.302      29.59      4.290E-03  94.86
-14.302      33.60      1.674E-02   8.57
-14.302      35.99      1.018E-02  19.87
-14.302      36.79      5.571E-03  35.77
-14.302      39.19      7.082E-03  33.74
-14.302      39.98      7.716E-03  11.03
-14.302      43.16      4.786E-03  12.20
-14.302      46.34      1.848E-03  17.58
-14.302      52.66      3.751E-04  80.69
-14.399      13.07      4.478E-03  93.43
-14.399      17.91      2.446E-02  56.13
-14.399      19.52      5.542E-02  58.92
-14.399      21.13      2.236E-02  54.04
-14.399      30.39      5.590E-03  27.58
-14.399      33.60      1.009E-02  47.36
-14.399      35.99      5.116E-03  37.54
-14.399      36.79      1.356E-02  13.25
-14.399      39.19      1.222E-02  21.18
-14.399      39.98      5.950E-03  16.19
-14.399      42.37      4.119E-03  44.72
-14.399      43.17      4.200E-03  15.13
-14.399      46.34      2.410E-03  15.42
-14.399      52.66      1.283E-03  29.80
ENDDATA            584
ENDSUBENT          592
SUBENT        C0148004     970421
BIB                  3          3
REACTION   (8-O-16(P,EL)8-O-16,,POL/DA,,ANA)
SAMPLE     BeO target, thickness 22.3 mg/cm2.
EN-SEC     Excitation energy resolution 50-80 keV FWHM.
ENDBIB               3
NOCOMMON             0          0
DATA                 3         30
ANG-CM     DATA-CM    DATA-ERR
ADEG       NO-DIM     NO-DIM
   6.60      0.494      0.011
   8.21      0.607      0.010
   9.82      0.656      0.011
  11.43      0.778      0.007
  13.04      0.859      0.010
  14.65      0.931      0.008
  16.26      0.991      0.007
  19.48      0.777      0.035
  19.63      0.803      0.008
  21.09      0.577      0.009
  21.24      0.532      0.009
  22.85      0.126      0.007
  25.52     -0.309      0.021
  28.73      0.060      0.014
  30.33      0.428      0.011
  31.93      0.736      0.014
  33.53      0.897      0.009
  35.92      0.912      0.011
  36.72      0.886      0.011
  39.11      0.627      0.017
  39.90      0.567      0.010
  42.28      0.244      0.022
  43.08      0.189      0.017
  46.25     -0.303      0.016
  48.62     -0.573      0.020
  49.41     -0.741      0.024
  51.77     -0.792      0.021
  52.56     -0.721      0.013
  54.92     -0.228      0.026
  58.84      0.505      0.013
ENDDATA             32
ENDSUBENT           40
SUBENT        C0148005     970421
BIB                  3          3
REACTION   (8-O-16(P,INL)8-O-16,PAR,POL/DA,,ANA)
SAMPLE     BeO target, thickness 22.3 mg/cm2.
EN-SEC     Excitation energy resolution 50-80 keV FWHM.
ENDBIB               3
NOCOMMON             0          0
DATA                 4        579
Q-VAL      ANG-CM     DATA-CM    DATA-ERR
MEV        ADEG       NO-DIM     NO-DIM
 -6.049       8.22      0.795      0.320
 -6.049       9.83      0.833      0.081
 -6.049      11.44      0.907      0.233
 -6.049      13.06      0.870      0.047
 -6.049      14.67      0.897      0.124
 -6.049      16.28      0.967      0.026
 -6.049      17.89      0.922      0.089
 -6.049      19.50      0.724      0.064
 -6.049      19.65      0.763      0.265
 -6.049      21.10      0.248      0.448
 -6.049      21.26      0.440      0.241
 -6.049      22.87      0.253      0.336
 -6.049      25.55     -0.024      0.059
 -6.049      27.15      0.074      0.447
 -6.049      28.75     -0.006      0.220
 -6.049      29.55     -0.609      0.197
 -6.049      30.36      0.101      0.064
 -6.049      31.96      0.383      0.156
 -6.049      32.76      0.167      0.177
 -6.049      33.56      0.643      0.134
 -6.049      39.14      0.395      0.161
 -6.049      39.93      0.594      0.094
 -6.049      42.32      0.306      0.217
 -6.049      43.11     -0.098      0.119
 -6.049      46.28     -0.357      0.134
 -6.130       6.30     -0.125      0.184
 -6.130       8.22      0.162      0.049
 -6.130       9.83      0.393      0.027
 -6.130      11.44      0.423      0.020
 -6.130      13.06      0.501      0.027
 -6.130      14.67      0.597      0.015
 -6.130      16.28      0.717      0.013
 -6.130      17.89      0.731      0.009
 -6.130      19.50      0.844      0.043
 -6.130      19.65      0.851      0.009
 -6.130      21.10      0.854      0.015
 -6.130      21.26      0.867      0.022
 -6.130      22.87      0.922      0.007
 -6.130      25.55      0.862      0.010
 -6.130      27.15      0.784      0.009
 -6.130      28.75      0.657      0.008
 -6.130      30.36      0.529      0.009
 -6.130      31.96      0.355      0.012
 -6.130      32.76      0.284      0.009
 -6.130      33.56      0.201      0.006
 -6.130      35.95     -0.045      0.013
 -6.130      36.75     -0.107      0.022
 -6.130      39.14     -0.345      0.015
 -6.130      39.94     -0.411      0.007
 -6.130      42.32     -0.647      0.017
 -6.130      43.11     -0.675      0.009
 -6.130      46.29     -0.910      0.009
 -6.130      49.45     -0.977      0.023
 -6.130      51.81     -0.868      0.016
 -6.130      52.60     -0.776      0.009
 -6.130      54.96     -0.475      0.032
 -6.130      58.88      0.031      0.011
 -6.917       6.31      0.484      0.095
 -6.917       8.22      0.487      0.055
 -6.917       9.83      0.606      0.015
 -6.917      11.45      0.659      0.011
 -6.917      13.06      0.718      0.020
 -6.917      14.67      0.804      0.025
 -6.917      16.28      0.902      0.015
 -6.917      19.50      0.944      0.060
 -6.917      19.65      0.961      0.041
 -6.917      21.11      0.926      0.023
 -6.917      21.26      0.916      0.015
 -6.917      22.87      0.842      0.027
 -6.917      25.55      0.517      0.018
 -6.917      27.15      0.200      0.024
 -6.917      28.76     -0.110      0.086
 -6.917      30.36     -0.342      0.025
 -6.917      31.96     -0.599      0.068
 -6.917      32.76     -0.548      0.058
 -6.917      33.56     -0.375      0.029
 -6.917      35.96      0.292      0.077
 -6.917      36.75      0.541      0.062
 -6.917      39.14      1.023      0.116
 -6.917      39.94      1.096      0.283
 -6.917      42.32      0.753      0.064
 -6.917      43.12      0.742      0.024
 -6.917      46.29      0.467      0.023
 -6.917      48.66      0.285      0.065
 -6.917      49.45      0.222      0.069
 -6.917      51.82     -0.037      0.087
 -6.917      52.61     -0.028      0.050
 -6.917      54.97     -0.350      0.092
 -6.917      58.89     -0.598      0.069
 -7.117       6.31      0.549      0.127
 -7.117       8.22      0.178      0.278
 -7.117       9.83      0.309      0.103
 -7.117      11.45      0.610      0.066
 -7.117      13.06      0.687      0.052
 -7.117      14.67      0.787      0.039
 -7.117      16.28      0.916      0.044
 -7.117      19.50      0.932      0.031
 -7.117      19.65      0.946      0.020
 -7.117      21.11      0.940      0.030
 -7.117      21.26      0.907      0.015
 -7.117      22.87      0.886      0.019
 -7.117      25.55      0.724      0.025
 -7.117      27.15      0.576      0.013
 -7.117      28.76      0.435      0.029
 -7.117      30.36      0.248      0.012
 -7.117      31.96      0.060      0.028
 -7.117      32.76     -0.005      0.020
 -7.117      33.56     -0.112      0.011
 -7.117      35.96     -0.382      0.025
 -7.117      36.75     -0.491      0.013
 -7.117      39.14     -0.702      0.040
 -7.117      39.94     -0.740      0.063
 -7.117      43.12     -0.944      0.027
 -7.117      46.29     -0.727      0.026
 -7.117      48.66     -0.177      0.073
 -7.117      49.45     -0.145      0.065
 -7.117      52.61      0.613      0.071
 -7.117      54.97      0.695      0.090
 -7.117      58.89      0.496      0.048
 -8.872       6.31     -0.075      0.203
 -8.872       8.22     -0.273      0.154
 -8.872       9.84      0.020      0.174
 -8.872      11.45     -0.040      0.190
 -8.872      13.06     -0.019      0.181
 -8.872      14.67     -0.053      0.204
 -8.872      16.28     -0.406      0.238
 -8.872      17.89     -0.464      0.206
 -8.872      19.50     -0.204      0.648
 -8.872      19.66     -0.606      0.269
 -8.872      21.27     -0.190      0.430
 -8.872      22.88     -0.147      0.217
 -8.872      25.56     -0.177      0.076
 -8.872      27.16     -0.104      0.081
 -8.872      28.77     -0.263      0.106
 -8.872      30.37     -0.268      0.072
 -8.872      31.97      0.183      0.122
 -8.872      32.77      0.146      0.106
 -8.872      33.57     -0.240      0.049
 -8.872      35.97     -0.340      0.118
 -8.872      36.76     -0.323      0.068
 -8.872      39.15     -0.336      0.197
 -8.872      39.95     -0.501      0.073
 -8.872      42.34     -1.366      0.287
 -8.872      43.13     -0.274      0.075
 -8.872      46.30     -0.236      0.087
 -8.872      49.47     -0.143      0.149
 -8.872      52.62      1.165      0.217
 -8.872      54.98      0.528      0.140
 -9.585      11.45      0.240      0.855
 -9.585      13.06      0.535      0.683
 -9.585      28.77      0.869      0.874
 -9.585      30.37      0.423      0.361
 -9.585      33.57      0.334      0.390
 -9.585      39.16     -0.346      0.400
 -9.585      39.95     -0.288      0.206
 -9.585      43.14     -0.822      0.421
 -9.585      46.31     -0.839      0.138
 -9.585      48.68     -0.663      0.428
 -9.585      49.47     -0.341      0.879
 -9.845       6.31      0.364      0.916
 -9.845       8.22     -0.410      0.403
 -9.845       9.84      0.095      0.165
 -9.845      11.45      0.146      0.327
 -9.845      13.06      0.318      0.108
 -9.845      14.68      0.357      0.105
 -9.845      16.29      0.419      0.059
 -9.845      17.90      0.573      0.192
 -9.845      19.51      0.795      0.167
 -9.845      19.66      0.810      0.080
 -9.845      21.12      0.883      0.137
 -9.845      21.27      0.671      0.062
 -9.845      22.88      0.807      0.046
 -9.845      25.56      0.847      0.035
 -9.845      27.17      0.911      0.053
 -9.845      28.77      0.710      0.139
 -9.845      29.57      0.393      0.101
 -9.845      30.37      0.583      0.047
 -9.845      31.97      0.451      0.107
 -9.845      32.77      0.090      0.084
 -9.845      33.57      0.228      0.071
 -9.845      35.97     -0.075      0.109
 -9.845      36.77     -0.126      0.064
 -9.845      39.16     -0.211      0.141
 -9.845      39.96     -0.495      0.065
 -9.845      42.34     -1.296      0.190
 -9.845      43.14     -0.697      0.055
 -9.845      46.31     -0.842      0.069
 -9.845      48.68     -1.042      0.192
 -9.845      49.47     -1.033      0.101
 -9.845      52.63     -1.347      0.297
-10.356       8.22      1.312      0.789
-10.356       9.84      0.304      0.580
-10.356      13.06      1.154      0.309
-10.356      14.68      0.867      0.139
-10.356      16.29      0.777      0.127
-10.356      17.90      0.814      0.094
-10.356      19.51      0.903      0.047
-10.356      19.66      0.775      0.081
-10.356      21.12      0.753      0.145
-10.356      21.27      0.849      0.056
-10.356      22.88      0.897      0.057
-10.356      25.56      0.876      0.113
-10.356      27.17      0.667      0.036
-10.356      28.77      0.647      0.038
-10.356      29.57      0.343      0.062
-10.356      30.37      0.430      0.026
-10.356      31.98      0.422      0.066
-10.356      32.78      0.201      0.048
-10.356      33.58      0.165      0.025
-10.356      35.97      0.066      0.061
-10.356      36.77     -0.085      0.155
-10.356      39.16     -0.364      0.091
-10.356      39.96     -0.449      0.045
-10.356      42.35     -1.005      0.105
-10.356      43.14     -0.605      0.051
-10.356      46.31     -0.821      0.034
-10.356      48.69     -0.726      0.078
-10.356      49.48     -0.811      0.042
-10.356      52.63     -0.678      0.053
-10.356      54.99     -0.314      0.147
-10.957       6.31      0.121      0.271
-10.957       8.23      0.207      0.394
-10.957       9.84      0.222      0.101
-10.957      11.45      0.456      0.256
-10.957      13.07      0.391      0.098
-10.957      14.68      0.398      0.101
-10.957      16.29      0.469      0.207
-10.957      17.90      0.569      0.307
-10.957      19.51     -0.193      0.335
-10.957      19.67      0.468      0.387
-10.957      21.28     -0.556      0.619
-10.957      22.88     -0.499      0.510
-10.957      25.56     -1.366      0.521
-10.957      27.17     -0.544      0.739
-10.957      28.77     -0.543      0.354
-10.957      29.58     -0.699      0.393
-10.957      30.38     -0.526      0.220
-10.957      31.98     -0.170      0.676
-10.957      32.78     -0.500      0.283
-10.957      33.58     -0.286      0.116
-10.957      35.98     -0.399      0.423
-10.957      36.77     -0.224      0.268
-10.957      39.17     -0.220      0.638
-10.957      39.96     -0.918      0.386
-10.957      43.14     -0.138      0.456
-10.957      46.32     -1.072      0.269
-10.957      49.48     -1.363      0.796
-10.957      55.00     -1.366      0.925
-11.100      19.67      1.006      0.477
-11.100      21.28      0.909      0.212
-11.100      22.89      0.961      0.350
-11.100      25.56      0.803      0.465
-11.100      27.17      0.860      0.283
-11.100      28.77      0.958      0.649
-11.100      29.58      0.462      0.873
-11.100      30.38      0.525      0.108
-11.100      31.98      0.555      0.254
-11.100      32.78      0.504      0.598
-11.100      33.58      0.607      0.241
-11.100      39.17      0.363      0.784
-11.100      39.96     -0.305      0.804
-11.100      43.14      0.133      0.446
-11.100      46.32     -0.325      0.492
-11.100      48.69      0.124      0.728
-11.100      49.48      0.041      0.891
-11.100      55.00      0.555      0.124
-11.520       6.31      0.469      0.079
-11.520       8.23      0.505      0.026
-11.520       9.84      0.583      0.021
-11.520      11.45      0.646      0.016
-11.520      13.07      0.715      0.026
-11.520      14.68      0.772      0.021
-11.520      16.29      0.861      0.021
-11.520      19.51      0.912      0.041
-11.520      19.67      0.908      0.027
-11.520      21.12      0.847      0.034
-11.520      21.28      0.875      0.051
-11.520      22.89      0.767      0.017
-11.520      25.57      0.468      0.025
-11.520      27.17      0.154      0.032
-11.520      28.78     -0.170      0.098
-11.520      30.38     -0.363      0.034
-11.520      31.98     -0.519      0.095
-11.520      32.78     -0.433      0.070
-11.520      33.58     -0.480      0.044
-11.520      35.98      0.021      0.105
-11.520      36.78      0.175      0.066
-11.520      39.97      0.469      0.140
-11.520      43.15      0.779      0.175
-11.520      46.32      0.453      0.040
-11.520      48.69      0.366      0.069
-11.520      49.48      0.177      0.140
-11.520      52.64     -0.085      0.031
-12.049       6.31     -0.002      0.126
-12.049       8.23      0.723      0.138
-12.049       9.84      0.840      0.074
-12.049      11.45      0.932      0.062
-12.049      13.07      0.930      0.035
-12.049      14.68      0.952      0.046
-12.049      16.29      0.950      0.026
-12.049      17.90      0.820      0.074
-12.049      19.51      0.749      0.026
-12.049      19.67      0.732      0.041
-12.049      21.12      0.522      0.092
-12.049      21.28      0.584      0.116
-12.049      22.89      0.341      0.053
-12.049      25.57     -0.071      0.070
-12.049      27.17     -0.326      0.075
-12.049      28.78     -0.425      0.120
-12.049      30.38     -0.610      0.050
-12.049      31.98     -0.350      0.130
-12.049      32.78     -0.405      0.109
-12.049      33.58     -0.271      0.060
-12.049      35.98      0.236      0.187
-12.049      36.78      0.529      0.169
-12.049      39.17      0.670      0.222
-12.049      39.97      0.749      0.271
-12.049      43.15      0.688      0.112
-12.049      46.32      0.290      0.105
-12.049      48.70      0.081      0.163
-12.049      49.49     -0.038      0.089
-12.049      52.64     -0.326      0.148
-12.440       6.31     -1.314      0.814
-12.440       8.23     -0.375      0.423
-12.440       9.84     -0.666      0.275
-12.440      13.07     -0.869      0.523
-12.440      17.90      0.565      0.261
-12.440      19.51      0.653      0.172
-12.440      19.67      0.616      0.131
-12.440      21.12      0.646      0.246
-12.440      21.28      0.752      0.146
-12.440      22.89      1.076      0.079
-12.440      25.57      0.696      0.129
-12.440      27.18      0.673      0.084
-12.440      28.78      0.573      0.098
-12.440      30.38      0.209      0.085
-12.440      31.99      0.443      0.190
-12.440      32.79      0.117      0.137
-12.440      33.59     -0.046      0.093
-12.440      35.98     -0.383      0.207
-12.440      36.78     -0.168      0.291
-12.440      39.17     -0.151      0.481
-12.440      39.97     -0.499      0.179
-12.440      42.36     -0.737      0.692
-12.440      43.15     -0.358      0.149
-12.440      46.33     -0.130      0.351
-12.440      49.49     -0.751      0.533
-12.530       6.31     -0.074      0.067
-12.530       8.23     -0.108      0.051
-12.530      13.07     -0.063      0.096
-12.530      14.68     -0.052      0.045
-12.530      16.29      0.018      0.068
-12.530      17.90     -0.007      0.178
-12.530      19.51      0.099      0.147
-12.530      19.67      0.056      0.144
-12.530      21.12      0.028      0.210
-12.530      21.28      0.077      0.108
-12.530      22.89      0.113      0.090
-12.530      25.57      0.002      0.100
-12.530      27.18     -0.739      0.638
-12.530      28.78     -0.448      0.405
-12.530      29.58     -0.428      0.943
-12.530      30.38     -0.452      0.224
-12.530      31.99     -0.692      0.762
-12.530      32.79     -1.122      0.874
-12.530      33.59     -0.152      0.427
-12.530      35.98     -0.362      0.953
-12.530      36.78     -0.131      0.239
-12.530      39.18      0.839      0.871
-12.530      39.97      0.166      0.234
-12.530      43.15      0.279      0.302
-12.530      46.33     -0.227      0.247
-12.530      49.49      0.371      0.846
-12.530      52.65     -0.263      0.389
-12.796       6.31      0.114      0.178
-12.796       8.23     -0.432      0.501
-12.796      16.29      1.047      0.510
-12.796      17.91      0.111      0.764
-12.796      19.52      1.089      0.934
-12.796      21.12     -0.037      0.799
-12.796      21.28      0.972      0.279
-12.796      22.89      0.848      0.222
-12.796      25.57      0.793      0.104
-12.796      27.18      0.718      0.131
-12.796      28.78      0.699      0.244
-12.796      29.58      0.159      0.292
-12.796      30.39      0.403      0.221
-12.796      31.99     -0.194      0.264
-12.796      32.79      0.274      0.161
-12.796      33.59      0.010      0.234
-12.796      35.99     -0.295      0.306
-12.796      36.78      0.202      0.386
-12.796      39.18      0.128      0.290
-12.796      39.97     -0.202      0.416
-12.796      42.36      1.107      0.499
-12.796      43.16     -0.624      0.276
-12.796      46.33     -0.551      0.513
-12.796      49.49     -0.694      0.457
-12.969       6.31      0.229      0.035
-12.969       8.23      0.253      0.026
-12.969      13.07      0.277      0.034
-12.969      14.68      0.266      0.060
-12.969      16.29      0.265      0.068
-12.969      17.91      0.204      0.078
-12.969      19.52      0.342      0.086
-12.969      19.67      0.248      0.065
-12.969      21.28      0.277      0.093
-12.969      22.89      0.119      0.121
-12.969      25.57      0.297      0.105
-12.969      27.18      0.209      0.203
-12.969      28.78      0.090      0.215
-12.969      30.39      0.120      0.116
-12.969      31.99      0.067      0.175
-12.969      32.79      0.037      0.275
-12.969      33.59      0.256      0.098
-12.969      35.99      0.361      0.196
-12.969      36.79      0.683      0.875
-12.969      39.18      0.442      0.427
-12.969      39.97      0.461      0.212
-12.969      42.36     -0.387      0.680
-12.969      43.16      0.182      0.381
-12.969      46.33      0.306      0.288
-12.969      52.65     -0.154      0.559
-13.080       6.31      0.203      0.068
-13.080       8.23      0.300      0.059
-13.080       9.84      0.356      0.048
-13.080      11.46      0.344      0.065
-13.080      13.07      0.432      0.036
-13.080      14.68      0.555      0.098
-13.080      16.29      0.733      0.026
-13.080      17.91      0.741      0.071
-13.080      19.52      0.753      0.055
-13.080      19.67      0.789      0.069
-13.080      21.13      0.816      0.081
-13.080      21.28      0.692      0.112
-13.080      22.89      0.817      0.042
-13.080      25.57      0.625      0.046
-13.080      27.18      0.522      0.058
-13.080      28.78      0.421      0.041
-13.080      30.39      0.237      0.032
-13.080      31.99      0.237      0.085
-13.080      32.79      0.137      0.070
-13.080      33.59     -0.140      0.036
-13.080      35.99     -0.343      0.099
-13.080      36.79     -0.098      0.568
-13.080      39.18     -0.300      0.191
-13.080      39.98     -0.510      0.114
-13.080      42.36     -1.366      0.294
-13.080      43.16     -0.393      0.100
-13.080      46.33     -0.215      0.205
-13.080      49.50     -0.279      0.140
-13.080      52.65     -0.268      0.156
-13.259       6.31     -0.168      0.222
-13.259       8.23      0.135      0.188
-13.259       9.84      0.147      0.203
-13.259      11.46      0.288      0.151
-13.259      13.07      0.268      0.086
-13.259      14.68      0.393      0.110
-13.259      16.30      0.443      0.063
-13.259      17.91      0.378      0.138
-13.259      19.52      0.245      0.110
-13.259      19.67      0.566      0.078
-13.259      21.13      0.666      0.212
-13.259      21.28      0.356      0.091
-13.259      22.89      0.276      0.081
-13.259      25.57      0.366      0.046
-13.259      27.18      0.437      0.052
-13.259      28.78      0.372      0.083
-13.259      29.59      0.107      0.184
-13.259      30.39      0.358      0.113
-13.259      31.99      0.411      0.181
-13.259      32.79      0.054      0.141
-13.259      33.59      0.109      0.126
-13.259      35.99     -0.423      0.241
-13.259      39.18     -0.244      0.517
-13.259      39.98     -0.434      0.188
-13.259      43.16     -0.665      0.182
-13.259      46.33     -0.562      0.420
-13.259      49.50     -0.455      0.220
-13.259      52.65     -0.799      0.323
-13.664       6.31      0.046      0.461
-13.664       8.23      0.551      0.470
-13.664       9.84     -0.357      0.425
-13.664      11.46      1.195      0.609
-13.664      13.07      0.717      0.176
-13.664      14.68      0.808      0.287
-13.664      16.30      0.752      0.240
-13.664      17.91      0.823      0.278
-13.664      19.52      1.268      0.353
-13.664      19.67      0.971      0.268
-13.664      21.28      0.714      0.558
-13.664      25.57     -1.365      0.775
-13.664      27.18     -0.071      0.235
-13.664      28.79     -0.062      0.330
-13.664      29.59     -0.154      0.253
-13.664      30.39      0.283      0.095
-13.664      31.99      0.061      0.269
-13.664      32.79     -0.268      0.484
-13.664      42.37      1.325      0.235
-13.664      52.66     -0.422      0.771
-13.869       8.23     -0.061      0.815
-13.869      13.07      0.475      0.266
-13.869      14.68      1.237      0.468
-13.869      16.30      0.822      0.173
-13.869      17.91      0.843      0.158
-13.869      19.52      0.754      0.312
-13.869      19.67      0.981      0.115
-13.869      21.29      0.599      0.182
-13.869      22.89      0.717      0.090
-13.869      25.58      0.782      0.186
-13.869      27.18      0.539      0.131
-13.869      28.79      0.594      0.145
-13.869      29.59      0.406      0.118
-13.869      30.39      0.513      0.038
-13.869      31.99      0.154      0.092
-13.869      33.59      0.257      0.036
-13.869      35.99      0.153      0.081
-13.869      36.79      0.110      0.099
-13.869      39.18     -0.132      0.103
-13.869      39.98     -0.187      0.101
-13.869      43.16     -0.351      0.050
-13.869      46.34     -0.455      0.135
-13.869      49.50     -0.696      0.116
-13.869      52.66     -0.696      0.067
-13.980       8.23      0.198      0.733
-13.980      14.69      0.058      0.702
-13.980      19.52      1.220      0.326
-13.980      21.29      0.309      0.413
-13.980      22.90      0.510      0.447
-13.980      28.79      0.397      0.856
-13.980      29.59     -0.356      0.772
-13.980      32.79      1.326      0.339
-13.980      36.79      0.116      0.178
-13.980      46.34     -0.974      0.242
-14.032       6.31     -0.327      0.274
-14.032       8.23      0.736      0.425
-14.032      13.07      0.429      0.179
-14.032      14.69      0.997      0.429
-14.032      16.30      1.041      0.211
-14.032      17.91      0.844      0.259
-14.032      19.52      0.844      0.220
-14.032      19.67      1.058      0.216
-14.032      21.13      0.705      0.340
-14.032      21.29      0.896      0.197
-14.032      22.90      1.012      0.212
-14.032      25.58      0.217      0.245
-14.032      27.18     -0.208      0.303
-14.032      28.79     -0.604      0.739
-14.032      33.59     -0.445      0.197
-14.302       8.23     -0.321      0.713
-14.302      13.07      1.277      0.627
-14.302      14.69      1.263      0.484
-14.302      19.68      0.792      0.614
-14.302      21.29      0.516      0.559
-14.302      25.58     -0.138      0.321
-14.302      27.18      0.120      0.333
-14.302      28.79     -0.459      0.609
-14.302      30.39      0.059      0.157
-14.302      33.60      0.171      0.201
-14.302      35.99      0.279      0.268
-14.302      36.79      0.046      0.477
-14.302      39.19     -0.508      0.474
-14.302      39.98     -0.144      0.142
-14.302      43.16     -0.323      0.225
-14.302      46.34      0.042      0.445
-14.399      16.30      0.804      0.236
-14.399      17.91      0.324      0.542
-14.399      19.52      1.172      0.354
-14.399      21.13      0.708      0.455
-14.399      30.39      0.436      0.339
-14.399      33.60      0.264      0.142
-14.399      35.99     -0.336      0.509
-14.399      36.79     -0.186      0.177
-14.399      39.19      0.375      0.296
-14.399      39.98     -0.463      0.277
-14.399      42.37     -0.585      0.620
-14.399      43.17     -0.631      0.204
-14.399      46.34     -0.287      0.366
-14.399      52.66     -1.046      0.344
ENDDATA            581
ENDSUBENT          589
SUBENT        C0148006     970421
BIB                  3          4
REACTION   (20-CA-40(P,EL)20-CA-40,,DA)
SAMPLE     Metallic calcium foil enriched to >99.9% 40Ca,
            areal thickness 15.2 mg/cm2.
EN-SEC     Excitation energy resolution 30-50 keV FWHM.
ENDBIB               4
NOCOMMON             0          0
DATA                 3         29
ANG-CM     DATA-CM    DATA-ERR
ADEG       MB/SR      PER-CENT
  7.58       1.778E+03   0.61
 10.96       4.613E+02   0.71
 14.04       7.187E+01   0.72
 15.59       2.278E+01   1.43
 17.13       1.446E+01   0.75
 18.68       1.482E+01   0.53
 18.82       1.544E+01   0.70
 20.23       1.716E+01   0.51
 20.37       1.787E+01   0.57
 21.77       1.647E+01   0.68
 21.91       1.638E+01   0.58
 24.48       1.056E+01   0.69
 25.88       7.244E+00   0.97
 26.02       6.828E+00   0.75
 27.51       4.337E+00   0.77
 27.56       4.276E+00   0.90
 29.11       2.418E+00   1.09
 30.65       1.367E+00   0.92
 32.19       9.446E-01   0.44
 35.26       5.306E-01   0.45
 38.34       3.927E-01   0.50
 41.41       2.698E-01   1.69
 42.88       1.813E-01   0.99
 44.48       1.330E-01   0.56
 46.97       5.413E-02   1.39
 47.55       4.259E-02   0.73
 50.61       1.525E-02   1.00
 53.67       1.146E-02   0.95
 56.72       1.014E-02   0.74
ENDDATA             31
ENDSUBENT           40
SUBENT        C0148007     970421
BIB                  3          4
REACTION   (20-CA-40(P,INL)20-CA-40,PAR,DA)
SAMPLE     Metallic calcium foil enriched to >99.9% 40Ca,
            areal thickness 15.2 mg/cm2.
EN-SEC     Excitation energy resolution 30-50 keV FWHM.
ENDBIB               4
NOCOMMON             0          0
DATA                 4        482
Q-VAL      ANG-CM     DATA-CM    DATA-ERR
MEV        ADEG       MB/SR      PER-CENT
 -3.352      6.04       2.060E-02  31.85
 -3.352      7.87       2.393E-02  32.09
 -3.352      9.41       3.833E-02  14.77
 -3.352     10.96       3.973E-02  18.33
 -3.352     12.50       2.758E-02  18.83
 -3.352     14.05       1.905E-02  14.71
 -3.352     15.59       1.518E-02  10.74
 -3.352     17.14       1.344E-02  12.23
 -3.352     18.69       2.127E-02  19.23
 -3.352     18.83       1.350E-02  13.66
 -3.352     20.23       1.413E-02  20.37
 -3.352     20.37       1.640E-02  10.36
 -3.352     21.77       1.345E-02  25.28
 -3.352     21.91       1.500E-02  39.98
 -3.352     24.49       8.191E-03  20.72
 -3.352     25.89       8.945E-03  25.90
 -3.352     26.03       9.413E-03  19.41
 -3.352     27.52       3.591E-03  30.01
 -3.352     27.57       4.741E-03  28.97
 -3.352     29.11       3.565E-03  12.21
 -3.352     30.65       4.869E-03  11.33
 -3.352     32.19       2.809E-03   9.44
 -3.352     35.27       1.809E-03   9.09
 -3.352     38.35       2.022E-03   7.03
 -3.352     41.42       8.050E-04  15.73
 -3.352     42.89       1.189E-03  12.48
 -3.352     44.49       6.190E-04   9.37
 -3.352     46.97       5.009E-04  15.02
 -3.352     47.55       3.972E-04   8.58
 -3.352     50.62       1.261E-04  13.84
 -3.352     53.68       1.143E-04  11.04
 -3.352     56.73       1.110E-04   7.22
 -3.736      6.04       2.448E-01   9.98
 -3.736      7.87       9.541E-01   3.56
 -3.736      9.41       2.343E+00   3.71
 -3.736     10.96       3.845E+00   1.18
 -3.736     12.50       5.654E+00   0.97
 -3.736     14.05       7.073E+00   6.72
 -3.736     15.59       8.120E+00   2.49
 -3.736     17.14       8.623E+00   1.69
 -3.736     18.69       7.725E+00   0.92
 -3.736     18.83       7.735E+00   0.84
 -3.736     20.23       6.743E+00   3.73
 -3.736     20.37       6.547E+00   0.77
 -3.736     21.77       5.437E+00   1.17
 -3.736     21.91       5.172E+00   0.82
 -3.736     24.49       3.116E+00   1.35
 -3.736     25.89       2.157E+00   1.49
 -3.736     26.03       2.174E+00   2.27
 -3.736     27.52       1.469E+00   1.15
 -3.736     27.57       1.501E+00   1.75
 -3.736     29.11       1.010E+00   1.94
 -3.736     30.65       6.599E-01   0.79
 -3.736     32.19       4.939E-01   0.62
 -3.736     35.27       3.469E-01   0.58
 -3.736     38.35       2.776E-01   0.55
 -3.736     41.42       2.012E-01   0.74
 -3.736     42.89       1.430E-01   1.07
 -3.736     44.49       1.093E-01   0.62
 -3.736     46.97       5.169E-02   1.49
 -3.736     47.56       4.805E-02   0.76
 -3.736     50.62       2.549E-02   0.81
 -3.736     53.68       1.808E-02   0.74
 -3.736     56.73       1.225E-02   0.67
 -3.904      6.04       3.409E-01   3.07
 -3.904      7.87       1.088E+00   2.05
 -3.904      9.41       1.588E+00   2.34
 -3.904     10.96       1.870E+00   1.53
 -3.904     12.50       2.206E+00   1.49
 -3.904     14.05       1.637E+00   5.67
 -3.904     15.59       1.325E+00   5.69
 -3.904     17.14       1.018E+00   1.34
 -3.904     18.69       5.566E-01   2.28
 -3.904     18.83       5.026E-01  11.09
 -3.904     20.23       2.934E-01  12.57
 -3.904     20.37       3.084E-01   8.77
 -3.904     21.77       1.580E-01   7.96
 -3.904     21.92       1.528E-01   3.98
 -3.904     24.49       1.481E-01   8.36
 -3.904     25.89       1.380E-01   6.50
 -3.904     26.03       1.090E-01   2.73
 -3.904     27.52       1.059E-01   5.68
 -3.904     27.57       1.105E-01   2.33
 -3.904     29.11       8.762E-02   3.82
 -3.904     30.65       7.171E-02   2.68
 -3.904     32.19       6.148E-02   1.93
 -3.904     35.27       2.929E-02   2.22
 -3.904     38.35       1.134E-02   3.19
 -3.904     41.42       5.727E-03  20.91
 -3.904     42.89       3.611E-03   9.72
 -3.904     44.49       3.370E-03   5.01
 -3.904     46.97       3.621E-03   6.59
 -3.904     47.56       2.991E-03   3.46
 -3.904     50.62       1.647E-03   3.85
 -3.904     53.68       7.022E-04   4.74
 -3.904     56.73       2.031E-04   9.13
 -4.492      6.04       1.500E-02  50.48
 -4.492      7.87       1.284E-02  29.42
 -4.492      9.42       9.365E-03  48.22
 -4.492     10.96       1.915E-02  27.31
 -4.492     12.50       3.646E-02  14.74
 -4.492     14.05       9.058E-02  14.20
 -4.492     15.59       1.634E-01   2.68
 -4.492     17.14       2.971E-01   2.02
 -4.492     18.69       4.350E-01   5.76
 -4.492     18.83       4.877E-01   2.34
 -4.492     20.23       5.897E-01   2.63
 -4.492     20.37       6.734E-01   4.27
 -4.492     21.77       7.566E-01   2.87
 -4.492     21.92       8.192E-01   1.05
 -4.492     24.49       1.080E+00   0.78
 -4.492     25.89       1.139E+00   2.08
 -4.492     26.03       1.157E+00   0.86
 -4.492     27.52       1.112E+00   1.40
 -4.492     27.57       1.204E+00   0.63
 -4.492     29.11       1.188E+00   0.60
 -4.492     30.65       1.101E+00   1.44
 -4.492     32.19       1.039E+00   0.43
 -4.492     35.27       7.838E-01   0.36
 -4.492     38.35       4.871E-01   0.37
 -4.492     41.42       2.622E-01   0.65
 -4.492     42.89       1.728E-01   1.01
 -4.492     44.49       1.246E-01   0.64
 -4.492     46.98       5.835E-02   1.39
 -4.492     47.56       5.293E-02   0.72
 -4.492     50.62       2.430E-02   0.82
 -4.492     53.68       1.147E-02   0.92
 -4.492     56.73       5.621E-03   0.91
 -5.213     14.05       1.004E-02  57.05
 -5.213     20.37       1.324E-03  79.77
 -5.213     29.11       8.662E-04  48.59
 -5.213     32.20       3.574E-04  71.38
 -5.213     47.56       7.559E-05  42.91
 -5.249      7.87       4.219E-02  27.60
 -5.249      9.42       1.173E-01  15.19
 -5.249     10.96       9.885E-02  77.32
 -5.249     12.50       1.333E-01   9.10
 -5.249     14.05       1.256E-01  11.10
 -5.249     15.59       1.190E-01   6.62
 -5.249     17.14       8.308E-02   8.14
 -5.249     18.83       5.597E-02  10.19
 -5.249     21.92       2.610E-02   9.36
 -5.249     24.49       1.666E-02  10.32
 -5.249     26.03       1.531E-02  10.74
 -5.249     27.57       1.426E-02   9.84
 -5.249     29.11       1.066E-02  10.54
 -5.249     30.66       1.103E-02  13.65
 -5.249     32.20       9.883E-03   7.09
 -5.249     35.27       6.610E-03   7.38
 -5.249     38.35       4.776E-03   8.44
 -5.249     41.42       2.046E-03  19.65
 -5.249     42.89       1.152E-03  25.34
 -5.249     44.49       1.006E-03  14.88
 -5.249     47.56       5.001E-04  16.56
 -5.249     50.62       4.971E-04  10.76
 -5.249     53.68       2.346E-04  18.19
 -5.249     56.74       1.297E-04  18.44
 -5.279     10.96       5.148E-02  45.10
 -5.279     12.51       3.066E-02  34.16
 -5.279     14.05       3.564E-02  34.81
 -5.279     15.59       6.255E-02  11.15
 -5.279     17.14       6.495E-02   9.85
 -5.279     18.83       6.803E-02   8.78
 -5.279     21.92       6.323E-02   4.69
 -5.279     24.49       3.774E-02   5.32
 -5.279     26.03       2.991E-02   6.25
 -5.279     27.57       1.894E-02   7.48
 -5.279     29.11       1.245E-02   8.92
 -5.279     30.66       8.744E-03  13.74
 -5.279     32.20       4.771E-03  12.38
 -5.279     35.27       3.954E-03  10.69
 -5.279     38.35       4.338E-03   7.88
 -5.279     41.42       3.512E-03  11.05
 -5.279     42.89       2.885E-03  11.14
 -5.279     44.49       2.209E-03   6.86
 -5.279     47.56       1.067E-03   7.79
 -5.279     50.62       4.064E-04  12.89
 -5.279     53.68       3.126E-04  11.69
 -5.279     56.74       2.126E-04  10.08
 -5.614      6.04       3.515E-02  81.57
 -5.614     15.59       2.519E-02  34.59
 -5.614     17.14       1.660E-02  42.50
 -5.614     20.37       2.134E-02  13.73
 -5.614     21.92       1.176E-02  19.23
 -5.614     24.49       1.626E-02  13.01
 -5.614     26.03       1.377E-02  15.69
 -5.614     27.57       1.105E-02  16.09
 -5.614     29.12       1.692E-02  10.31
 -5.614     30.66       1.339E-02  15.11
 -5.614     32.20       1.058E-02  11.28
 -5.614     35.28       1.098E-02   7.86
 -5.614     38.35       8.420E-03   7.39
 -5.614     41.42       1.809E-03  25.92
 -5.614     42.89       1.394E-03  29.09
 -5.614     44.49       8.809E-04  21.15
 -5.614     47.56       6.270E-04  17.23
 -5.614     50.62       2.285E-04  25.73
 -5.614     53.68       3.795E-05  79.60
 -5.630      6.04       4.833E-02  42.49
 -5.630      7.87       9.339E-02  39.69
 -5.630      9.42       1.536E-01  25.56
 -5.630     10.96       2.095E-01  25.40
 -5.630     12.51       1.766E-01  11.70
 -5.630     14.05       1.655E-01  12.36
 -5.630     15.59       9.147E-02   9.94
 -5.630     17.14       7.520E-02   9.95
 -5.630     18.68       5.925E-02   6.46
 -5.630     18.83       5.405E-02  10.04
 -5.630     20.37       1.265E-02  22.35
 -5.630     21.92       1.731E-02  13.52
 -5.630     24.49       8.469E-03  23.82
 -5.630     26.03       1.152E-02  18.64
 -5.630     27.57       1.275E-02  14.19
 -5.630     29.12       4.518E-03  35.05
 -5.630     30.66       7.325E-03  26.68
 -5.630     32.20       7.054E-03  16.69
 -5.630     35.28       1.046E-03  78.07
 -5.630     42.89       1.120E-03  36.34
 -5.630     44.49       7.465E-04  24.77
 -5.630     47.56       2.276E-04  45.55
 -5.630     50.62       1.908E-04  30.51
 -5.630     53.68       8.388E-05  36.29
 -5.630     56.74       3.559E-05  40.63
 -5.903      6.04       2.640E-02  29.11
 -5.903      7.87       1.837E-02  35.25
 -5.903      9.42       2.619E-02  20.02
 -5.903     10.96       3.454E-02  19.02
 -5.903     12.51       4.755E-02  11.97
 -5.903     14.05       8.926E-02   5.89
 -5.903     15.59       1.137E-01   3.38
 -5.903     17.14       1.345E-01   3.37
 -5.903     18.68       1.182E-01   3.76
 -5.903     18.83       1.171E-01   4.87
 -5.903     20.37       1.141E-01   2.70
 -5.903     21.92       8.077E-02   3.09
 -5.903     24.49       3.986E-02   3.91
 -5.903     26.03       2.853E-02   4.53
 -5.903     27.57       2.198E-02   4.90
 -5.903     29.12       1.773E-02   5.32
 -5.903     30.66       1.764E-02   6.22
 -5.903     32.20       1.880E-02   3.28
 -5.903     35.28       1.859E-02   2.44
 -5.903     38.35       1.290E-02   2.33
 -5.903     41.42       7.403E-03   4.26
 -5.903     42.89       4.773E-03   5.95
 -5.903     44.49       3.333E-03   3.69
 -5.903     47.56       1.868E-03   3.64
 -5.903     50.62       1.265E-03   3.68
 -5.903     53.68       7.625E-04   3.77
 -5.903     56.74       2.456E-04   4.70
 -6.028      6.04       2.262E-02  33.38
 -6.028      7.87       1.147E-02  27.84
 -6.028      9.42       2.305E-02  22.49
 -6.028     10.96       2.458E-02  24.62
 -6.028     12.51       2.548E-02  18.96
 -6.028     14.05       1.707E-02  18.70
 -6.028     15.59       1.769E-02  10.57
 -6.028     17.14       1.539E-02  13.24
 -6.028     18.68       1.513E-02  13.26
 -6.028     18.83       2.102E-02  12.74
 -6.028     20.37       2.359E-02   6.60
 -6.028     21.92       1.560E-02   7.94
 -6.028     24.49       1.090E-02   8.07
 -6.028     26.03       8.098E-03   9.57
 -6.028     27.57       6.029E-03  10.63
 -6.028     29.12       3.522E-03  14.06
 -6.028     30.66       3.579E-03  16.16
 -6.028     32.20       2.700E-03  10.71
 -6.028     35.28       1.312E-03  13.23
 -6.028     38.35       2.915E-04  34.59
 -6.028     41.42       1.545E-04  72.26
 -6.028     42.89       4.359E-04  25.39
 -6.028     44.49       2.019E-04  23.12
 -6.028     47.56       1.040E-04  21.89
 -6.028     50.62       8.403E-05  21.16
 -6.028     53.68       5.007E-05  22.29
 -6.028     56.74       1.118E-05  41.08
 -6.286      6.04       3.589E-02  22.08
 -6.286      7.87       1.059E-01   5.99
 -6.286      9.42       2.100E-01   4.38
 -6.286     10.96       4.440E-01   4.92
 -6.286     12.51       5.199E-01   2.88
 -6.286     14.05       5.824E-01   2.39
 -6.286     15.59       5.652E-01   1.51
 -6.286     17.14       5.154E-01   1.72
 -6.286     18.83       3.401E-01   2.96
 -6.286     20.37       2.222E-01   1.91
 -6.286     21.92       1.360E-01   2.33
 -6.286     24.49       7.529E-02   2.76
 -6.286     26.03       9.187E-02   2.44
 -6.286     27.57       1.226E-01   2.01
 -6.286     29.12       1.612E-01   1.72
 -6.286     30.66       1.881E-01   1.84
 -6.286     32.20       2.057E-01   0.97
 -6.286     35.28       1.901E-01   0.75
 -6.286     38.35       1.281E-01   0.70
 -6.286     41.43       6.945E-02   1.33
 -6.286     42.89       4.471E-02   1.91
 -6.286     44.50       3.099E-02   1.19
 -6.286     47.56       1.313E-02   1.36
 -6.286     50.62       7.565E-03   1.44
 -6.286     53.68       4.629E-03   1.47
 -6.286     56.74       2.249E-03   1.47
 -6.508     10.96       1.733E-02  62.75
 -6.508     12.51       2.114E-02  26.46
 -6.508     14.05       3.562E-02  18.56
 -6.508     15.59       4.413E-02   8.62
 -6.508     17.14       6.903E-02   6.69
 -6.508     18.68       7.494E-02   5.67
 -6.508     18.83       7.932E-02   7.15
 -6.508     20.37       8.339E-02   4.06
 -6.508     21.92       8.562E-02   3.86
 -6.508     24.49       6.928E-02   3.82
 -6.508     26.03       5.835E-02   4.08
 -6.508     27.58       4.589E-02   4.46
 -6.508     29.12       3.158E-02   4.58
 -6.508     30.66       1.859E-02   7.31
 -6.508     32.20       1.378E-02   5.16
 -6.508     35.28       4.668E-03   8.49
 -6.508     38.35       1.594E-03  14.26
 -6.508     41.43       9.567E-04  29.03
 -6.508     42.89       1.199E-03  21.49
 -6.508     44.50       7.056E-04  14.46
 -6.508     47.56       6.465E-04   8.38
 -6.508     50.63       3.128E-04  12.97
 -6.508     53.68       1.845E-04  13.53
 -6.508     56.74       2.781E-05  34.72
 -6.544      7.87       1.711E-02  82.65
 -6.544     12.51       3.478E-02  23.87
 -6.544     14.05       1.655E-02  75.34
 -6.544     15.59       3.206E-02  22.13
 -6.544     17.14       6.132E-03  97.11
 -6.544     18.83       9.492E-03  50.11
 -6.544     20.37       9.745E-03  33.00
 -6.544     21.92       9.061E-03  33.06
 -6.544     24.49       2.346E-03  88.82
 -6.544     32.20       1.005E-03  82.93
 -6.544     44.50       6.571E-04  27.31
 -6.544     50.63       1.718E-04  42.59
 -6.544     53.69       4.872E-05  96.47
 -6.583      6.04       2.135E-02  39.58
 -6.583      7.87       6.047E-02  10.00
 -6.583      9.42       1.515E-01   8.19
 -6.583     10.96       2.440E-01   6.36
 -6.583     12.51       2.854E-01   4.33
 -6.583     14.05       3.526E-01   3.89
 -6.583     15.59       3.201E-01   2.62
 -6.583     17.14       2.942E-01   2.61
 -6.583     18.83       2.082E-01   3.90
 -6.583     20.37       1.307E-01   2.89
 -6.583     21.92       8.088E-02   3.59
 -6.583     24.49       4.492E-02   4.31
 -6.583     26.03       4.413E-02   4.31
 -6.583     27.58       6.163E-02   3.31
 -6.583     29.12       7.943E-02   2.60
 -6.583     30.66       9.875E-02   2.65
 -6.583     32.20       9.857E-02   1.51
 -6.583     35.28       9.808E-02   1.15
 -6.583     38.35       6.537E-02   1.11
 -6.583     41.43       3.525E-02   2.19
 -6.583     42.89       2.451E-02   2.98
 -6.583     44.50       1.538E-02   1.90
 -6.583     47.56       6.377E-03   2.00
 -6.583     50.63       3.101E-03   2.93
 -6.583     53.69       1.700E-03   3.19
 -6.583     56.74       7.064E-04   3.69
 -6.751      6.04       3.810E-02  22.18
 -6.751      7.87       5.058E-02   8.08
 -6.751      9.42       4.028E-02  15.95
 -6.751     10.96       6.466E-02  13.96
 -6.751     12.51       6.025E-02  10.35
 -6.751     14.05       4.313E-02   9.85
 -6.751     15.59       4.524E-02   5.86
 -6.751     17.14       4.721E-02   6.38
 -6.751     18.68       3.049E-02   8.19
 -6.751     18.83       3.392E-02   9.67
 -6.751     20.37       2.171E-02   6.59
 -6.751     21.92       1.960E-02   6.64
 -6.751     24.49       1.935E-02   6.06
 -6.751     26.03       1.674E-02   6.40
 -6.751     27.58       1.320E-02   6.92
 -6.751     29.12       9.564E-03   8.10
 -6.751     30.66       6.676E-03  12.01
 -6.751     32.20       5.423E-03   7.30
 -6.751     35.28       1.884E-03  12.15
 -6.751     38.35       2.044E-04  59.88
 -6.751     41.43       1.896E-04  73.11
 -6.751     44.50       3.356E-04  18.24
 -6.751     47.56       2.369E-04  14.67
 -6.751     50.63       6.505E-05  27.74
 -6.751     53.69       3.745E-05  28.98
 -6.751     56.74       1.779E-05  29.41
 -6.909      6.04       3.228E-01  15.10
 -6.909      9.42       1.294E+00  11.23
 -6.909     10.96       1.549E+00  15.29
 -6.909     12.51       1.821E+00   3.70
 -6.909     15.59       1.469E+00   3.30
 -6.909     17.14       1.261E+00   3.66
 -6.909     18.68       1.102E+00   2.23
 -6.909     18.83       9.604E-01   3.43
 -6.909     20.38       6.330E-01   2.43
 -6.909     21.92       5.130E-01   2.36
 -6.909     24.49       3.152E-01   2.77
 -6.909     26.03       2.465E-01   3.05
 -6.909     27.58       2.003E-01   3.52
 -6.909     29.12       1.552E-01   3.72
 -6.909     30.66       9.213E-02   5.43
 -6.909     32.20       7.683E-02   3.35
 -6.909     35.28       6.146E-02   3.55
 -6.909     38.35       3.485E-02   4.13
 -6.909     41.43       2.263E-02   5.45
 -6.909     42.90       1.409E-02   9.38
 -6.909     44.50       9.209E-03   6.73
 -6.909     47.56       4.627E-03   8.43
 -6.909     50.63       2.590E-03  12.53
 -6.909     53.69       1.472E-03  17.91
 -6.909     56.74       6.382E-04  11.91
 -6.931      7.87       5.538E-01  13.07
 -6.931     10.96       4.116E-01  83.31
 -6.931     17.14       2.652E-01  21.77
 -6.931     18.83       2.085E-01  17.34
 -6.931     20.38       1.145E-01  16.84
 -6.931     24.49       9.789E-02  11.19
 -6.931     27.58       4.915E-02  18.47
 -6.931     29.12       7.211E-02  10.26
 -6.931     30.66       7.356E-02  10.69
 -6.931     32.20       3.881E-02   9.86
 -6.931     35.28       3.840E-02   8.32
 -6.931     38.35       2.864E-02   8.54
 -6.931     42.90       1.124E-02  19.82
 -6.931     44.50       1.085E-02   9.46
 -6.931     47.56       6.863E-03  10.26
 -6.931     50.63       5.496E-03  10.74
 -6.931     53.69       2.532E-03  13.92
 -6.931     56.74       6.818E-04  19.80
 -6.951      6.04       2.087E-01  18.72
 -6.951      7.87       2.653E-01  79.44
 -6.951      9.42       6.983E-02  92.30
 -6.951     14.05       6.220E-01  10.30
 -6.951     17.14       6.207E-01   4.98
 -6.951     18.68       6.140E-01   3.61
 -6.951     18.83       6.066E-01   4.34
 -6.951     20.38       5.735E-01   2.49
 -6.951     21.92       4.735E-01   2.40
 -6.951     26.03       1.885E-01   3.63
 -6.951     27.58       1.165E-01   5.06
 -6.951     29.12       8.297E-02   5.95
 -6.951     30.66       9.303E-02   6.31
 -6.951     35.28       1.040E-01   2.85
 -6.951     38.35       7.896E-02   3.14
 -6.951     41.43       5.311E-02   3.38
 -6.951     42.90       3.086E-02   7.22
 -6.951     44.50       2.184E-02   4.99
 -6.951     47.56       1.151E-02   7.03
 -6.951     50.63       6.511E-03  11.31
 -6.951     53.69       4.255E-03   9.60
 -6.951     56.74       1.921E-03   7.72
 -7.110      6.04       1.692E-02  45.77
 -7.110      7.87       1.885E-02  41.01
 -7.110      9.42       1.170E-02  67.98
 -7.110     10.96       4.206E-02  29.40
 -7.110     12.51       4.337E-02  13.90
 -7.110     15.59       4.327E-02   7.00
 -7.110     17.14       4.904E-02   7.12
 -7.110     18.68       4.656E-02   7.28
 -7.110     18.83       5.666E-02   7.51
 -7.110     20.38       6.501E-02   4.15
 -7.110     24.49       4.555E-02   3.98
 -7.110     26.03       4.724E-02   3.85
 -7.110     27.58       5.052E-02   3.40
 -7.110     29.12       4.263E-02   3.55
 -7.110     30.66       3.479E-02   4.59
 -7.110     32.20       3.085E-02   2.68
 -7.110     35.28       1.737E-02   2.82
 -7.110     38.35       8.560E-03   3.30
 -7.110     41.43       4.201E-03   6.82
 -7.110     42.90       2.946E-03   8.96
 -7.110     44.50       2.013E-03   5.72
 -7.110     47.56       9.802E-04   6.50
 -7.110     50.63       4.058E-04   8.96
 -7.110     53.69       1.970E-04   9.53
 -7.110     56.74       9.229E-05  10.21
ENDDATA            484
ENDSUBENT          493
SUBENT        C0148008     970421
BIB                  3          4
REACTION   (20-CA-40(P,EL)20-CA-40,,POL/DA,,ANA)
SAMPLE     Metallic calcium foil enriched to >99.9% 40Ca,
            areal thickness 15.2 mg/cm2.
EN-SEC     Excitation energy resolution 30-50 keV FWHM.
ENDBIB               4
NOCOMMON             0          0
DATA                 3         29
ANG-CM     DATA-CM    DATA-ERR
ADEG       NO-DIM     NO-DIM
  7.58       0.561      0.007
 10.96       0.834      0.007
 14.04       0.905      0.008
 15.59       0.604      0.021
 17.13      -0.219      0.008
 18.68      -0.145      0.020
 18.82      -0.030      0.009
 20.23       0.293      0.006
 20.37       0.356      0.007
 21.77       0.633      0.007
 21.91       0.677      0.007
 24.48       0.950      0.008
 25.88       0.963      0.010
 26.02       0.924      0.008
 27.51       0.794      0.009
 27.56       0.753      0.010
 29.11       0.444      0.014
 30.65       0.002      0.012
 32.19      -0.261      0.006
 35.26       0.273      0.006
 38.34       0.866      0.006
 41.41       0.819      0.018
 42.88       0.611      0.011
 44.48       0.445      0.007
 46.97      -0.023      0.018
 47.55      -0.109      0.010
 50.61      -0.188      0.013
 53.67       0.635      0.011
 56.72       0.844      0.008
ENDDATA             31
ENDSUBENT           40
SUBENT        C0148009     970421
BIB                  3          4
REACTION   (20-CA-40(P,INL)20-CA-40,PAR,POL/DA,,ANA)
SAMPLE     Metallic calcium foil enriched to >99.9% 40Ca,
            areal thickness 15.2 mg/cm2.
EN-SEC     Excitation energy resolution 30-50 keV FWHM.
ENDBIB               4
NOCOMMON             0          0
DATA                 4        478
Q-VAL      ANG-CM     DATA-CM    DATA-ERR
MEV        ADEG       NO-DIM     NO-DIM
 -3.352      6.04       0.774      0.441
 -3.352      7.87       0.445      0.431
 -3.352      9.41       1.267      0.129
 -3.352     10.96       1.160      0.271
 -3.352     12.50       0.962      0.153
 -3.352     14.05       0.763      0.122
 -3.352     15.59       0.100      0.119
 -3.352     17.14      -0.127      0.253
 -3.352     18.69       0.249      0.088
 -3.352     18.83      -0.371      0.281
 -3.352     20.23      -0.170      0.244
 -3.352     20.37       0.061      0.337
 -3.352     21.77       0.614      0.244
 -3.352     21.91       0.396      0.212
 -3.352     24.49       0.959      0.239
 -3.352     25.89       0.811      0.241
 -3.352     26.03       0.849      0.327
 -3.352     27.52       0.642      0.356
 -3.352     27.57       0.779      0.231
 -3.352     29.11       0.113      0.162
 -3.352     30.65      -0.365      0.305
 -3.352     32.19      -0.372      0.126
 -3.352     35.27      -0.125      0.123
 -3.352     38.35       0.740      0.082
 -3.352     41.42       1.174      0.224
 -3.352     42.89       0.467      0.150
 -3.352     44.49       0.641      0.122
 -3.352     46.97      -0.129      0.195
 -3.352     47.55      -0.075      0.115
 -3.352     50.62       0.023      0.187
 -3.352     53.68       0.660      0.133
 -3.352     56.73       0.842      0.077
 -3.736      6.04       0.043      0.047
 -3.736      7.87       0.369      0.027
 -3.736      9.41       0.475      0.013
 -3.736     10.96       0.578      0.025
 -3.736     12.50       0.629      0.010
 -3.736     14.05       0.698      0.045
 -3.736     15.59       0.814      0.015
 -3.736     17.14       0.891      0.024
 -3.736     18.69       0.904      0.046
 -3.736     18.83       0.949      0.010
 -3.736     20.23       0.948      0.025
 -3.736     20.37       0.939      0.005
 -3.736     21.77       0.901      0.011
 -3.736     21.91       0.861      0.005
 -3.736     24.49       0.452      0.006
 -3.736     25.89       0.133      0.018
 -3.736     26.03       0.096      0.028
 -3.736     27.52      -0.270      0.015
 -3.736     27.57      -0.316      0.022
 -3.736     29.11      -0.614      0.009
 -3.736     30.65      -0.681      0.011
 -3.736     32.19      -0.406      0.008
 -3.736     35.27       0.556      0.007
 -3.736     38.35       0.735      0.007
 -3.736     41.42       0.312      0.024
 -3.736     42.89      -0.008      0.014
 -3.736     44.49      -0.295      0.008
 -3.736     46.97      -0.776      0.016
 -3.736     47.56      -0.829      0.009
 -3.736     50.62      -0.483      0.010
 -3.736     53.68       0.278      0.010
 -3.736     56.73       0.622      0.008
 -3.904      6.04       0.547      0.123
 -3.904      7.87       0.520      0.028
 -3.904      9.41       0.616      0.018
 -3.904     10.96       0.748      0.014
 -3.904     12.50       0.749      0.015
 -3.904     14.05       0.859      0.056
 -3.904     15.59       0.951      0.010
 -3.904     17.14       0.970      0.015
 -3.904     18.69       0.824      0.061
 -3.904     18.83       0.755      0.033
 -3.904     20.23       0.463      0.048
 -3.904     20.37       0.472      0.022
 -3.904     21.77      -0.346      0.108
 -3.904     21.92      -0.387      0.092
 -3.904     24.49       0.013      0.090
 -3.904     25.89       0.032      0.079
 -3.904     26.03       0.119      0.103
 -3.904     27.52       0.589      0.073
 -3.904     27.57       0.653      0.051
 -3.904     29.11       0.892      0.039
 -3.904     30.65       0.951      0.032
 -3.904     32.19       0.832      0.023
 -3.904     35.27       0.323      0.028
 -3.904     38.35      -0.205      0.045
 -3.904     41.42       0.006      0.088
 -3.904     42.89       0.702      0.122
 -3.904     44.49       1.088      0.071
 -3.904     46.97       0.900      0.089
 -3.904     47.56       0.983      0.049
 -3.904     50.62       0.664      0.052
 -3.904     53.68       0.229      0.063
 -3.904     56.73       0.375      0.113
 -4.492      6.04       0.034      0.613
 -4.492      7.87      -0.230      0.345
 -4.492      9.42       0.055      0.540
 -4.492     10.96      -0.414      0.372
 -4.492     12.50       0.103      0.163
 -4.492     14.05       0.432      0.072
 -4.492     15.59       0.535      0.027
 -4.492     17.14       0.640      0.019
 -4.492     18.69       0.658      0.017
 -4.492     18.83       0.704      0.036
 -4.492     20.23       0.777      0.075
 -4.492     20.37       0.782      0.011
 -4.492     21.77       0.854      0.024
 -4.492     21.92       0.836      0.011
 -4.492     24.49       0.827      0.008
 -4.492     25.89       0.801      0.019
 -4.492     26.03       0.784      0.018
 -4.492     27.52       0.711      0.015
 -4.492     27.57       0.709      0.011
 -4.492     29.11       0.610      0.007
 -4.492     30.65       0.470      0.008
 -4.492     32.19       0.301      0.006
 -4.492     35.27      -0.016      0.005
 -4.492     38.35      -0.333      0.005
 -4.492     41.42      -0.626      0.022
 -4.492     42.89      -0.714      0.012
 -4.492     44.49      -0.825      0.008
 -4.492     46.98      -0.804      0.015
 -4.492     47.56      -0.833      0.008
 -4.492     50.62      -0.511      0.010
 -4.492     53.68      -0.030      0.012
 -4.492     56.73       0.195      0.012
 -5.213     14.05      -0.620      0.813
 -5.213     20.37       1.075      0.721
 -5.213     29.11      -0.489      0.686
 -5.213     32.20       0.430      0.911
 -5.213     47.56      -0.615      0.535
 -5.249      7.87       0.521      0.333
 -5.249      9.42       0.550      0.149
 -5.249     10.96       0.848      0.308
 -5.249     12.50       0.712      0.085
 -5.249     14.05       0.898      0.094
 -5.249     15.59       0.911      0.052
 -5.249     17.14       0.932      0.063
 -5.249     18.83       0.956      0.086
 -5.249     21.92       0.412      0.107
 -5.249     24.49      -0.393      0.147
 -5.249     26.03      -0.177      0.147
 -5.249     27.57      -0.191      0.132
 -5.249     29.11       0.035      0.142
 -5.249     30.66       0.458      0.205
 -5.249     32.20       0.538      0.092
 -5.249     35.27       0.695      0.087
 -5.249     38.35       0.180      0.112
 -5.249     41.42       0.065      0.267
 -5.249     42.89      -0.615      0.335
 -5.249     44.49      -0.749      0.184
 -5.249     47.56      -0.240      0.212
 -5.249     50.62       0.504      0.155
 -5.249     53.68       0.998      0.227
 -5.249     56.74       0.834      0.184
 -5.279     10.96      -0.339      0.603
 -5.279     12.51       0.184      0.363
 -5.279     14.05       0.467      0.310
 -5.279     15.59       0.799      0.088
 -5.279     17.14       0.919      0.075
 -5.279     18.83       0.967      0.075
 -5.279     21.92       0.881      0.044
 -5.279     24.49       0.475      0.068
 -5.279     26.03       0.145      0.082
 -5.279     27.57      -0.142      0.101
 -5.279     29.11      -0.652      0.121
 -5.279     30.66      -0.953      0.203
 -5.279     32.20      -0.536      0.181
 -5.279     35.27       0.650      0.126
 -5.279     38.35       0.871      0.100
 -5.279     41.42       0.023      0.148
 -5.279     42.89       0.098      0.146
 -5.279     44.49      -0.249      0.089
 -5.279     47.56      -0.740      0.094
 -5.279     50.62      -0.926      0.185
 -5.279     53.68       0.130      0.152
 -5.279     56.74       0.613      0.109
 -5.614      6.04       0.440      0.892
 -5.614     15.59       0.147      0.362
 -5.614     17.14       0.564      0.378
 -5.614     20.37       0.366      0.171
 -5.614     21.92      -0.032      0.259
 -5.614     24.49      -0.286      0.177
 -5.614     26.03      -0.467      0.228
 -5.614     27.57      -0.751      0.228
 -5.614     29.12      -0.201      0.140
 -5.614     30.66      -0.222      0.201
 -5.614     32.20      -0.424      0.146
 -5.614     35.28      -0.466      0.098
 -5.614     38.35      -0.388      0.095
 -5.614     41.42       0.089      0.346
 -5.614     42.89      -0.595      0.394
 -5.614     44.49      -0.232      0.295
 -5.614     47.56       0.187      0.223
 -5.614     50.62       0.638      0.333
 -5.630      6.04       0.855      0.486
 -5.630      7.87       0.577      0.370
 -5.630      9.42       0.406      0.259
 -5.630     10.96       0.252      0.254
 -5.630     12.51       0.671      0.104
 -5.630     14.05       0.796      0.112
 -5.630     15.59       1.085      0.082
 -5.630     17.14       0.912      0.084
 -5.630     18.68       0.752      0.080
 -5.630     18.83       0.702      0.112
 -5.630     20.37       0.042      0.296
 -5.630     21.92      -0.401      0.194
 -5.630     24.49      -0.748      0.357
 -5.630     26.03       0.217      0.248
 -5.630     27.57       0.396      0.202
 -5.630     29.12       1.023      0.565
 -5.630     30.66       0.206      0.372
 -5.630     32.20       0.461      0.255
 -5.630     41.42      -0.107      0.542
 -5.630     42.89       0.558      0.520
 -5.630     44.49       0.812      0.349
 -5.630     47.56       1.299      0.681
 -5.630     50.62       0.447      0.391
 -5.630     53.68       0.107      0.487
 -5.630     56.74       1.323      0.667
 -5.903      6.04      -0.034      0.358
 -5.903      7.87       0.491      0.197
 -5.903      9.42       0.269      0.212
 -5.903     10.96       0.567      0.166
 -5.903     12.51       0.664      0.109
 -5.903     14.05       0.857      0.048
 -5.903     15.59       0.888      0.027
 -5.903     17.14       0.951      0.025
 -5.903     18.68       0.802      0.032
 -5.903     18.83       0.885      0.051
 -5.903     20.37       0.649      0.029
 -5.903     21.92       0.381      0.038
 -5.903     24.49      -0.340      0.053
 -5.903     26.03      -0.806      0.053
 -5.903     27.57      -0.744      0.060
 -5.903     29.12      -0.134      0.072
 -5.903     30.66       0.622      0.074
 -5.903     32.20       0.803      0.036
 -5.903     35.28       0.637      0.028
 -5.903     38.35       0.035      0.031
 -5.903     41.42      -0.518      0.054
 -5.903     42.89      -0.699      0.069
 -5.903     44.49      -0.961      0.037
 -5.903     47.56      -0.254      0.048
 -5.903     50.62       0.519      0.046
 -5.903     53.68       0.680      0.044
 -5.903     56.74       0.597      0.056
 -6.028      6.04       0.022      0.407
 -6.028      7.87       0.180      0.397
 -6.028      9.42       0.018      0.257
 -6.028     10.96       0.570      0.194
 -6.028     12.51       0.068      0.211
 -6.028     14.05      -0.266      0.231
 -6.028     15.59      -0.093      0.122
 -6.028     17.14      -0.316      0.164
 -6.028     18.68      -0.218      0.157
 -6.028     18.83      -0.240      0.175
 -6.028     20.37      -0.094      0.090
 -6.028     21.92      -0.355      0.114
 -6.028     24.49      -0.628      0.113
 -6.028     26.03      -0.456      0.126
 -6.028     27.57      -0.683      0.138
 -6.028     29.12      -0.349      0.191
 -6.028     30.66      -0.130      0.218
 -6.028     32.20       0.069      0.143
 -6.028     35.28       0.175      0.173
 -6.028     38.35       0.469      0.458
 -6.028     41.42       0.116      0.987
 -6.028     42.89      -0.147      0.327
 -6.028     44.49       0.608      0.358
 -6.028     47.56       0.508      0.329
 -6.028     50.62       0.751      0.285
 -6.028     53.68       0.616      0.286
 -6.028     56.74       0.602      0.513
 -6.286      6.04       0.310      0.261
 -6.286      7.87       0.364      0.048
 -6.286      9.42       0.420      0.046
 -6.286     10.96       0.429      0.032
 -6.286     12.51       0.550      0.029
 -6.286     14.05       0.716      0.022
 -6.286     15.59       0.820      0.013
 -6.286     17.14       0.886      0.014
 -6.286     18.83       0.930      0.036
 -6.286     20.37       0.765      0.019
 -6.286     21.92       0.380      0.028
 -6.286     24.49      -0.463      0.037
 -6.286     26.03      -0.008      0.033
 -6.286     27.57       0.478      0.025
 -6.286     29.12       0.762      0.019
 -6.286     30.66       0.804      0.019
 -6.286     32.20       0.713      0.011
 -6.286     35.28       0.417      0.009
 -6.286     38.35      -0.029      0.009
 -6.286     41.43      -0.499      0.017
 -6.286     42.89      -0.676      0.022
 -6.286     44.50      -0.877      0.013
 -6.286     47.56      -0.715      0.016
 -6.286     50.62       0.048      0.019
 -6.286     53.68       0.476      0.018
 -6.286     56.74       0.560      0.018
 -6.508     10.96      -0.064      0.732
 -6.508     12.51       0.190      0.282
 -6.508     14.05       0.571      0.172
 -6.508     15.59       0.806      0.076
 -6.508     17.14       0.828      0.056
 -6.508     18.68       0.824      0.054
 -6.508     18.83       0.849      0.073
 -6.508     20.37       0.891      0.036
 -6.508     21.92       0.926      0.031
 -6.508     24.49       0.769      0.040
 -6.508     26.03       0.641      0.047
 -6.508     27.58       0.401      0.056
 -6.508     29.12       0.298      0.061
 -6.508     30.66      -0.097      0.098
 -6.508     32.20      -0.399      0.069
 -6.508     35.28      -0.572      0.122
 -6.508     38.35      -0.454      0.194
 -6.508     41.43      -0.052      0.389
 -6.508     42.89       0.431      0.305
 -6.508     44.50       0.518      0.210
 -6.508     47.56       0.214      0.115
 -6.508     50.63      -0.101      0.175
 -6.508     53.68      -0.216      0.184
 -6.508     56.74      -0.526      0.511
 -6.544      7.87       0.731      0.791
 -6.544     12.51       0.676      0.224
 -6.544     14.05       0.779      0.648
 -6.544     15.59       0.498      0.201
 -6.544     17.14       1.272      0.831
 -6.544     18.83       0.627      0.509
 -6.544     20.37       1.284      0.310
 -6.544     21.92       1.226      0.298
 -6.544     44.50       0.627      0.455
 -6.544     50.63       0.217      0.568
 -6.544     56.74      -0.300      0.493
 -6.583      6.04       0.568      0.703
 -6.583      7.87       0.356      0.110
 -6.583      9.42       0.477      0.084
 -6.583     10.96       0.515      0.060
 -6.583     12.51       0.664      0.041
 -6.583     14.05       0.749      0.034
 -6.583     15.59       0.886      0.022
 -6.583     17.14       0.889      0.021
 -6.583     18.83       0.933      0.042
 -6.583     20.37       0.724      0.029
 -6.583     21.92       0.379      0.042
 -6.583     24.49      -0.479      0.061
 -6.583     26.03      -0.037      0.058
 -6.583     27.58       0.526      0.041
 -6.583     29.12       0.838      0.028
 -6.583     30.66       0.856      0.029
 -6.583     32.20       0.714      0.017
 -6.583     35.28       0.324      0.015
 -6.583     38.35      -0.180      0.015
 -6.583     41.43      -0.667      0.028
 -6.583     42.89      -0.799      0.032
 -6.583     44.50      -0.958      0.021
 -6.583     47.56      -0.612      0.024
 -6.583     50.63       0.077      0.039
 -6.583     53.69       0.472      0.041
 -6.583     56.74       0.488      0.048
 -6.751      6.04      -0.067      0.274
 -6.751      7.87      -0.085      0.132
 -6.751      9.42       0.080      0.179
 -6.751     10.96      -0.187      0.165
 -6.751     12.51       0.229      0.112
 -6.751     14.05       0.203      0.106
 -6.751     15.59       0.373      0.061
 -6.751     17.14       0.404      0.065
 -6.751     18.68       0.043      0.092
 -6.751     18.83       0.201      0.126
 -6.751     20.37      -0.342      0.093
 -6.751     21.92      -0.482      0.095
 -6.751     24.49      -0.188      0.083
 -6.751     26.03      -0.494      0.085
 -6.751     27.58      -0.282      0.094
 -6.751     29.12      -0.077      0.110
 -6.751     30.66      -0.116      0.163
 -6.751     32.20      -0.083      0.099
 -6.751     35.28      -0.352      0.172
 -6.751     38.35       0.601      0.864
 -6.751     44.50       0.801      0.298
 -6.751     47.56       0.378      0.209
 -6.751     50.63       0.735      0.396
 -6.751     53.69       0.684      0.370
 -6.751     56.74       0.082      0.389
 -6.909      6.04       0.544      0.168
 -6.909      9.42       0.593      0.112
 -6.909     10.96       1.272      0.063
 -6.909     12.51       0.803      0.033
 -6.909     15.59       0.931      0.026
 -6.909     17.14       0.930      0.024
 -6.909     18.68       0.832      0.023
 -6.909     18.83       0.871      0.041
 -6.909     20.38       0.682      0.026
 -6.909     21.92       0.288      0.029
 -6.909     24.49      -0.281      0.038
 -6.909     26.03      -0.484      0.041
 -6.909     27.58      -0.304      0.046
 -6.909     29.12      -0.057      0.050
 -6.909     30.66       0.296      0.071
 -6.909     32.20       0.675      0.038
 -6.909     35.28       0.730      0.040
 -6.909     38.35       0.313      0.054
 -6.909     41.43       0.303      0.077
 -6.909     42.90      -0.365      0.117
 -6.909     44.50      -0.493      0.085
 -6.909     47.56       0.088      0.117
 -6.909     50.63       0.739      0.191
 -6.909     53.69       0.115      0.256
 -6.909     56.74       0.147      0.169
 -6.931      7.87       0.714      0.528
 -6.931     14.05       0.880      0.148
 -6.931     17.14       1.260      0.150
 -6.931     18.83       0.800      0.159
 -6.931     20.38       0.722      0.182
 -6.931     24.49       0.062      0.151
 -6.931     27.58      -0.324      0.245
 -6.931     29.12       0.019      0.138
 -6.931     30.66       0.279      0.139
 -6.931     32.20       0.366      0.118
 -6.931     35.28       0.135      0.107
 -6.931     38.35      -0.196      0.116
 -6.931     42.90      -0.512      0.219
 -6.931     44.50      -0.665      0.099
 -6.931     47.56      -0.851      0.119
 -6.931     50.63      -0.277      0.138
 -6.931     53.69      -0.206      0.203
 -6.931     56.74      -0.315      0.293
 -6.951      6.04       0.391      0.218
 -6.951      7.87       0.442      0.781
 -6.951     12.51       0.730      0.106
 -6.951     14.05       0.802      0.085
 -6.951     17.14       0.875      0.036
 -6.951     18.68       0.732      0.037
 -6.951     18.83       0.822      0.051
 -6.951     20.38       0.631      0.028
 -6.951     21.92       0.368      0.029
 -6.951     26.03      -0.627      0.048
 -6.951     27.58      -0.480      0.066
 -6.951     29.12       0.084      0.080
 -6.951     30.66       0.692      0.079
 -6.951     35.28       0.649      0.034
 -6.951     38.35       0.085      0.042
 -6.951     41.43      -0.653      0.038
 -6.951     42.90      -0.759      0.071
 -6.951     44.50      -0.940      0.044
 -6.951     47.56      -0.387      0.079
 -6.951     50.63       0.309      0.173
 -6.951     53.69       0.843      0.125
 -6.951     56.74       0.582      0.108
 -7.110      6.04       1.388      0.637
 -7.110      7.87       0.299      0.785
 -7.110      9.42       1.279      0.747
 -7.110     10.96      -0.311      0.388
 -7.110     12.51       0.577      0.132
 -7.110     15.59       0.825      0.057
 -7.110     17.14       0.971      0.052
 -7.110     18.68       0.840      0.063
 -7.110     18.83       0.852      0.074
 -7.110     20.38       0.802      0.042
 -7.110     24.49       0.626      0.049
 -7.110     26.03       0.545      0.049
 -7.110     27.58       0.445      0.043
 -7.110     29.12       0.286      0.046
 -7.110     30.66       0.122      0.061
 -7.110     32.20      -0.140      0.036
 -7.110     35.28      -0.355      0.039
 -7.110     38.35      -0.422      0.044
 -7.110     41.43      -0.327      0.090
 -7.110     42.90      -0.266      0.113
 -7.110     44.50       0.005      0.077
 -7.110     47.56       0.285      0.089
 -7.110     50.63       0.393      0.118
 -7.110     53.69       0.063      0.127
 -7.110     56.74       0.266      0.134
ENDDATA            480
ENDSUBENT          489
SUBENT        C0148010     970422
BIB                  3          3
REACTION   (4-BE-9(P,EL)4-BE-9,,DA)
SAMPLE     BeO target, thickness 22.3 mg/cm2.
EN-SEC     Excitation energy resolution 50-80 keV FWHM.
ENDBIB               3
NOCOMMON             0          0
DATA                 3         28
ANG-CM     DATA-CM    DATA-ERR
ADEG       MB/SR      PER-CENT
  6.95       1.794E+02   1.71
  8.65       1.667E+02   1.02
 10.35       1.219E+02   1.00
 12.04       1.122E+02   0.87
 13.74       8.704E+01   0.76
 15.43       5.227E+01   0.73
 17.13       3.376E+01   1.22
 20.67       1.251E+01   1.01
 22.20       8.676E+00   1.10
 22.36       8.438E+00   2.01
 24.05       5.244E+00   0.62
 26.85       2.631E+00   0.61
 28.54       1.837E+00   2.97
 30.22       1.366E+00   2.78
 31.89       1.019E+00   3.47
 33.57       8.209E-01   1.45
 34.40       7.187E-01   1.09
 35.24       6.605E-01   1.19
 37.74       4.584E-01   1.34
 38.57       4.116E-01   3.09
 41.07       3.038E-01   1.88
 41.90       2.636E-01   1.56
 45.21       1.595E-01   1.23
 48.50       8.513E-02   0.99
 51.78       5.272E-02   4.58
 54.23       3.234E-02   3.21
 55.05       2.651E-02   1.94
 57.49       1.372E-02   3.86
ENDDATA             30
ENDSUBENT           38
SUBENT        C0148011     970422
BIB                  3          3
REACTION   (4-BE-9(P,INL)4-BE-9,PAR,DA)
SAMPLE     BeO target, thickness 22.3 mg/cm2.
EN-SEC     Excitation energy resolution 50-80 keV FWHM.
ENDBIB               3
NOCOMMON             0          0
DATA                 4        136
Q-VAL      ANG-CM     DATA-CM    DATA-ERR
MEV        ADEG       MB/SR      PER-CENT
 -1.680     13.75       7.197E-02  49.92
 -1.680     15.44       1.648E-01  18.24
 -1.680     17.13       1.297E-01  39.76
 -1.680     18.83       1.052E-01  22.32
 -1.680     20.52       8.879E-02  12.84
 -1.680     20.68       9.987E-02  14.22
 -1.680     22.20       9.295E-02  14.20
 -1.680     22.37       1.242E-01  14.36
 -1.680     24.06       8.821E-02   9.67
 -1.680     26.87       6.003E-02   9.29
 -1.680     28.55       3.980E-02  12.12
 -1.680     30.23       3.592E-02  13.58
 -1.680     31.07       3.915E-02  12.89
 -1.680     31.91       2.546E-02   8.95
 -1.680     33.58       2.634E-02  11.44
 -1.680     34.42       2.910E-02  11.00
 -1.680     35.25       2.048E-02   4.56
 -1.680     37.76       1.734E-02   9.98
 -1.680     41.08       1.399E-02  14.61
 -1.680     41.91       1.249E-02  24.92
 -1.680     44.40       8.680E-03  25.48
 -1.680     45.22       4.710E-03  11.66
 -1.680     48.52       2.651E-03   9.64
 -1.680     50.98       3.870E-03  25.40
 -2.429     13.75       3.271E+00   2.42
 -2.429     15.44       3.518E+00   2.21
 -2.429     17.14       3.886E+00   1.99
 -2.429     20.52       3.953E+00   1.40
 -2.429     20.68       3.964E+00   1.80
 -2.429     22.21       3.667E+00   1.70
 -2.429     22.37       3.817E+00   1.59
 -2.429     24.06       3.365E+00   3.47
 -2.429     26.87       2.670E+00   1.48
 -2.429     28.55       2.231E+00   5.39
 -2.429     30.23       2.014E+00   0.66
 -2.429     31.91       1.546E+00   4.43
 -2.429     33.59       1.368E+00   1.26
 -2.429     34.42       1.118E+00   1.28
 -2.429     35.26       1.136E+00   1.19
 -2.429     37.76       8.134E-01   1.48
 -2.429     38.60       6.958E-01   4.19
 -2.429     41.09       4.677E-01   1.69
 -2.429     41.92       4.142E-01   0.80
 -2.429     44.41       2.696E-01   3.83
 -2.429     45.23       2.122E-01   2.18
 -2.429     48.53       9.734E-02   0.99
 -2.429     50.99       5.589E-02   7.31
 -2.429     51.81       5.167E-02   3.57
 -2.429     55.08       2.650E-02   4.65
 -2.429     57.52       1.356E-02  12.33
 -2.780     13.75       7.095E-01  28.62
 -2.780     15.44       1.451E+00  13.82
 -2.780     17.14       6.281E-01  21.83
 -2.780     18.83       6.978E-01  13.67
 -2.780     20.52       3.704E-01  23.52
 -2.780     20.68       3.226E-01  33.47
 -2.780     22.21       2.924E-01  41.49
 -2.780     22.37       3.562E-01  19.35
 -2.780     24.06       2.294E-01  28.82
 -2.780     26.87       1.168E-01  19.05
 -2.780     28.56       1.272E-01  29.97
 -2.780     30.24       6.230E-02  46.93
 -2.780     31.91       8.692E-02  15.75
 -2.780     33.59       9.329E-02  45.20
 -2.780     35.26       1.306E-01  51.12
 -2.780     37.77       1.404E-01  24.00
 -2.780     38.60       1.258E-01  50.47
 -2.780     41.09       7.220E-02  25.22
 -2.780     41.92       1.803E-02  92.08
 -2.780     48.53       4.749E-03  75.42
 -3.049     17.14       1.014E-01  31.06
 -3.049     18.83       8.317E-02  54.68
 -3.049     20.52       7.050E-02  61.22
 -3.049     20.69       7.868E-02  51.21
 -3.049     22.21       1.107E-01  38.27
 -3.049     22.38       8.759E-02  18.76
 -3.049     24.07       6.844E-02  22.07
 -3.049     26.87       8.721E-02  18.66
 -3.049     28.56       4.629E-02  33.68
 -3.049     30.24       7.223E-02  30.70
 -3.049     31.92       3.459E-02  14.55
 -3.049     33.59       3.316E-02  36.00
 -3.049     35.27       2.500E-02  45.90
 -3.049     37.77       2.000E-02  44.25
 -3.049     41.93       1.479E-02  45.51
 -3.049     45.24       7.356E-03  30.78
 -3.049     48.54       3.728E-03  20.84
 -4.704     13.76       9.662E-01  12.95
 -4.704     15.45       1.002E+00   9.92
 -4.704     17.15       1.035E+00   7.17
 -4.704     18.84       8.215E-01   7.48
 -4.704     20.53       6.657E-01  16.28
 -4.704     20.69       5.708E-01  11.64
 -4.704     22.22       6.492E-01  10.81
 -4.704     22.39       6.321E-01   4.96
 -4.704     24.08       5.808E-01  13.70
 -4.704     26.89       3.126E-01   4.18
 -4.704     28.57       2.261E-01  10.03
 -4.704     30.25       1.875E-01  22.87
 -4.704     31.09       2.026E-01  14.23
 -4.704     31.93       7.942E-02  20.45
 -4.704     33.61       4.029E-02  41.92
 -4.704     34.44       3.177E-02  44.06
 -4.704     35.28       5.441E-02  15.87
 -4.704     37.78       2.811E-02  32.22
 -4.704     38.62       2.964E-02  40.38
 -4.704     41.11       2.398E-02  42.01
 -4.704     41.94       1.720E-02  63.07
 -4.704     44.43       1.731E-02  71.90
 -6.500      6.65       2.661E+00  21.00
 -6.500      8.67       1.456E+00  63.80
 -6.500     10.37       2.090E+00  40.37
 -6.500     12.06       3.860E+00  24.47
 -6.500     13.76       3.466E+00   3.18
 -6.500     15.46       3.338E+00  11.79
 -6.500     17.15       3.325E+00   9.69
 -6.500     18.85       3.641E+00   3.17
 -6.500     20.54       3.627E+00  11.80
 -6.500     20.70       2.802E+00  10.41
 -6.500     22.23       2.812E+00   8.22
 -6.500     22.40       3.053E+00   6.84
 -6.500     24.09       2.562E+00   8.21
 -6.500     26.90       2.157E+00   2.89
 -6.500     28.58       1.698E+00   3.05
 -6.500     30.27       1.454E+00   3.88
 -6.500     31.94       1.023E+00   3.84
 -6.500     33.62       9.167E-01   8.71
 -6.500     34.46       8.758E-01   7.32
 -6.500     35.30       8.954E-01   5.85
 -6.500     37.80       7.449E-01   8.22
 -6.500     38.64       6.969E-01   5.17
 -6.500     41.13       5.283E-01  10.02
 -6.500     41.96       3.718E-01   5.27
 -6.500     44.45       2.384E-01  10.58
 -6.500     45.28       2.138E-01   5.14
 -6.500     48.58       1.191E-01  14.94
ENDDATA            138
ENDSUBENT          146
SUBENT        C0148012     970422
BIB                  3          3
REACTION   (4-BE-9(P,EL)4-BE-9,,POL/DA,,ANA)
SAMPLE     BeO target, thickness 22.3 mg/cm2.
EN-SEC     Excitation energy resolution 50-80 keV FWHM.
ENDBIB               3
NOCOMMON             0          0
DATA                 3         28
ANG-CM     DATA-CM    DATA-ERR
ADEG       NO-DIM     NO-DIM
  6.95       0.542      0.016
  8.65       0.555      0.011
 10.35       0.594      0.011
 12.04       0.711      0.008
 13.74       0.782      0.009
 15.43       0.854      0.007
 17.13       0.931      0.007
 20.67       0.951      0.008
 22.20       0.894      0.010
 22.36       0.901      0.034
 24.05       0.817      0.005
 26.85       0.542      0.018
 28.54       0.367      0.007
 30.22       0.223      0.009
 31.89       0.140      0.007
 33.57       0.109      0.019
 34.40       0.114      0.014
 35.24       0.111      0.016
 37.74       0.087      0.018
 38.57       0.089      0.010
 41.07       0.036      0.025
 41.90       0.049      0.011
 45.21       0.010      0.013
 48.50      -0.014      0.023
 51.78       0.019      0.041
 54.23      -0.003      0.043
 55.05      -0.010      0.026
 57.49       0.057      0.051
ENDDATA             30
ENDSUBENT           38
SUBENT        C0148013     970422
BIB                  3          3
REACTION   (4-BE-9(P,INL)4-BE-9,PAR,POL/DA,,ANA)
SAMPLE     BeO target, thickness 22.3 mg/cm2.
EN-SEC     Excitation energy resolution 50-80 keV FWHM.
ENDBIB               3
NOCOMMON             0          0
DATA                 4        135
Q-VAL      ANG-CM     DATA-CM    DATA-ERR
MEV        ADEG       NO-DIM     NO-DIM
 -1.680     13.75       0.625      0.364
 -1.680     15.44       1.035      0.095
 -1.680     17.13       0.934      0.123
 -1.680     18.83       0.867      0.088
 -1.680     20.52       0.662      0.097
 -1.680     20.68       0.969      0.099
 -1.680     22.20       0.910      0.103
 -1.680     22.37       0.829      0.198
 -1.680     24.06       0.805      0.119
 -1.680     26.87       0.678      0.115
 -1.680     28.55       0.652      0.063
 -1.680     30.23       0.325      0.100
 -1.680     31.07       0.636      0.167
 -1.680     31.91       0.260      0.255
 -1.680     33.58       0.391      0.148
 -1.680     34.42       0.095      0.141
 -1.680     35.25       0.042      0.064
 -1.680     37.76      -0.380      0.132
 -1.680     41.08      -0.654      0.180
 -1.680     41.91      -0.482      0.432
 -1.680     44.40      -0.841      0.267
 -1.680     45.22      -0.358      0.145
 -1.680     48.52      -0.773      0.211
 -1.680     50.98      -0.310      0.331
 -2.429     13.75       0.674      0.019
 -2.429     15.44       0.768      0.016
 -2.429     17.14       0.845      0.007
 -2.429     20.52       0.891      0.012
 -2.429     20.68       0.969      0.013
 -2.429     22.21       0.942      0.013
 -2.429     22.37       0.950      0.019
 -2.429     24.06       0.939      0.007
 -2.429     26.87       0.829      0.010
 -2.429     28.55       0.710      0.008
 -2.429     30.23       0.582      0.014
 -2.429     31.91       0.420      0.006
 -2.429     33.59       0.253      0.016
 -2.429     34.42       0.180      0.016
 -2.429     35.26       0.102      0.006
 -2.429     37.76      -0.084      0.020
 -2.429     38.60      -0.198      0.021
 -2.429     41.09      -0.427      0.022
 -2.429     41.92      -0.437      0.014
 -2.429     44.41      -0.688      0.044
 -2.429     45.23      -0.652      0.017
 -2.429     48.53      -0.813      0.012
 -2.429     50.99      -0.849      0.074
 -2.429     51.81      -0.846      0.016
 -2.429     55.08      -0.740      0.055
 -2.429     57.52      -0.574      0.135
 -2.780     13.75       0.529      0.229
 -2.780     15.44       0.808      0.090
 -2.780     17.14       0.893      0.076
 -2.780     18.83       0.770      0.253
 -2.780     20.52       0.691      0.183
 -2.780     20.68       0.768      0.266
 -2.780     22.21       0.454      0.357
 -2.780     22.37       0.629      0.101
 -2.780     24.06       0.610      0.211
 -2.780     26.87       0.566      0.324
 -2.780     28.56       0.706      0.179
 -2.780     30.24       1.202      0.608
 -2.780     31.91       0.197      0.198
 -2.780     33.59       0.835      0.631
 -2.780     35.26       0.103      0.148
 -2.780     37.77      -0.320      0.313
 -2.780     38.60      -0.092      0.260
 -2.780     41.09       0.153      0.342
 -3.049     13.75       0.763      0.682
 -3.049     17.14       0.270      0.288
 -3.049     18.83       0.680      0.488
 -3.049     20.52       0.395      0.359
 -3.049     20.69       0.675      0.436
 -3.049     22.21       0.955      0.277
 -3.049     22.38       0.732      0.611
 -3.049     24.07       0.635      0.543
 -3.049     26.87       0.608      0.153
 -3.049     28.56       0.298      0.176
 -3.049     30.24       0.306      0.144
 -3.049     31.92       0.502      0.180
 -3.049     33.59       0.075      0.473
 -3.049     35.27       0.309      0.613
 -3.049     37.77      -0.020      0.589
 -3.049     41.93      -0.161      0.412
 -3.049     45.24      -0.120      0.413
 -3.049     48.54      -0.186      0.271
 -4.704     13.76       0.671      0.090
 -4.704     15.45       0.887      0.066
 -4.704     17.15       0.889      0.041
 -4.704     18.84       0.799      0.069
 -4.704     20.53       0.726      0.060
 -4.704     20.69       0.913      0.083
 -4.704     22.22       0.986      0.076
 -4.704     22.39       0.905      0.058
 -4.704     24.08       0.850      0.087
 -4.704     26.89       0.821      0.071
 -4.704     28.57       0.829      0.145
 -4.704     30.25       0.461      0.096
 -4.704     31.09       0.255      0.187
 -4.704     31.93       0.301      0.164
 -4.704     33.61       0.459      0.560
 -4.704     34.44      -0.547      0.684
 -4.704     35.28      -0.270      0.130
 -4.704     37.78      -0.366      0.439
 -4.704     38.62      -0.237      0.186
 -4.704     41.11       0.186      0.572
 -4.704     41.94      -0.061      0.456
 -4.704     48.56      -1.366      0.775
 -6.500      6.65       1.075      0.447
 -6.500      8.67       0.546      0.705
 -6.500     10.37       0.820      0.297
 -6.500     12.06       0.650      0.226
 -6.500     13.76       0.813      0.023
 -6.500     15.46       0.739      0.096
 -6.500     17.15       0.920      0.051
 -6.500     18.85       0.885      0.040
 -6.500     20.54       0.922      0.070
 -6.500     20.70       0.936      0.068
 -6.500     22.23       0.937      0.061
 -6.500     22.40       0.977      0.111
 -6.500     24.09       0.908      0.022
 -6.500     26.90       0.817      0.092
 -6.500     28.58       0.715      0.049
 -6.500     30.27       0.624      0.057
 -6.500     31.94       0.445      0.126
 -6.500     33.62       0.411      0.111
 -6.500     34.46       0.088      0.096
 -6.500     35.30       0.081      0.039
 -6.500     37.80      -0.172      0.109
 -6.500     38.64      -0.119      0.132
 -6.500     41.13      -0.078      0.135
 -6.500     41.96      -0.339      0.092
 -6.500     44.45      -0.602      0.113
 -6.500     45.28      -0.522      0.138
 -6.500     48.58      -0.718      0.137
ENDDATA            137
ENDSUBENT          145
ENDENTRY            13
