ENTRY            14021   20050701   20050909                  1336
SUBENT        14021001   20050701   20050909                  1336
BIB                  9         15
INSTITUTE  (1USALAS,1USAMSU,1USALRL)
REFERENCE  (J,PR/C,71,064314,2005)
AUTHOR     (N.Fotiades,R.O.Nelson,M.Devlin,K.Starosta,J.A.Becker,
            L.A.Bernstein,P.E.Garrett,W.Younes)
TITLE      States in 197Au from the (n,n'g) reaction
FACILITY   (ACCEL,1USALAS)LANSCE accelerator and WNR neutron
            source
METHOD     (TOF)
SAMPLE     197Au target in the present experiment consisted of one
            foil, 1.5 g/cm2 thick.
DETECTOR   (GE-IN) GEANIE spectrometer with 11 Compton-suppressed
            planar Ge detectors (low-energy photon
            spectrometers; LEPS), 9 Compton-suppressed coaxial Ge
            detectors, and 6 unsuppressed coaxial Ge detectors.
HISTORY    (20050701C) DR
ENDBIB              15
NOCOMMON             0          0
ENDSUBENT           18
SUBENT        14021002   20050701   20050909                  1336
BIB                  4          7
REACTION   (79-AU-197(N,INL)79-AU-197,,SPC,,REL)
             Intensity normalized to 1000 for gamma-ray energy of
             279 keV
EN-SEC     (E,G)
           (E-EXC,79-AU-197) Initial level of excitation
ERR-ANALYS No information
STATUS     Data read from table 1
ENDBIB               7
COMMON               2          3
EN-MIN     EN-MAX
MEV        MEV
1.         70.
ENDCOMMON            3
DATA                 4         93
E          E-EXC      DATA       DATA-MIN
KEV        KEV        ARB-UNITS  ARB-UNITS
 174.8      584.       477.
 176.0     1295.        23.
 189.2      737.         7.
 191.4      269.       424.
 201.6      279.        18.
 233.6      502.        11.
 234.4      737.         7.
 236.5     1004.         9.
 259.6     1555.         8.
 268.5      548.        52.
 268.8      269.        52.
 279.0      279.      1000.
 305.0      584.         9.
 308.0      856.        39.
 308.0     1045.        39.
 322.9     1060.        22.
 330.2     1375.        10.
 341.0     1277.         9.
 358.0      767.       251.
 364.0      948.       126.
 366.3     1370.         5.
 376.0     1231.        11.
 421.9     1370.        26.
 425.0      502.        13.
 429.2     1836.        13.
 433.1      936.        18.
 457.9      737.       191.
 468.1      737.        20.
 488.0     1533.         9.
 497.6     1045.         8.
 502.5      502.       276.
 519.7     1375.         7.
 529.0     1266.         5.
 535.0     1119.        59.
 538.6      948.        76.
 540.0     1277.        11.
 542.5     1045.        10.
 547.5      548.       433.
 557.1     1060.        22.
 558.8     1414.        19.
 568.9     1572.        18.
 576.5      856.       179.
 594.4     1004.        79.
 606.6     1555.        14.
 611.9     1379.        26.
 616.2     1119.         8.
 619.4      888.         5.
 638.2     1642.        20.
 638.6     1375.        20.
 639.7     1407.        41.
 657.1      936.        15.
 667.1      936.        30.
 677.8     1414.        14.
 684.2     1231.        46.
 702.9     1470.        22.
 711.0     1295.        44.
 716.0     1720.         4.
 718.8     1574.        26.
 732.3     1963.         6.
 745.6     1513.        15.
 763.2     1266.         5.
 766.3     1045.        49.
 774.6     1277.        11.
 776.1     1045.        32.
 791.6     1911.         7.
 795.0     1743.         4.
 797.2     1801.        10.
 805.4     1572.         7.
 810.8      888.        26.
 813.6     1933.         6.
 825.0     1773.        11.
 827.6     1375.         6.
 839.8     1119.        11.
 850.5     1798.         9.
 858.6      936.        10.
 860.0     1627.        14.
 869.9     1874.         4.
 871.5     1151.        12.
 881.9     1151.        17.
 895.3     2014.         7.
 913.0     1680.        13.
 920.3     1868.         7.
 926.0     1663.         9.
 936.2      936.        36.
 952.5     1720.         5.
 970.8     1555.         7.
 973.0     1242.         9.
 978.3     1481.         7.
1073.4     1151.        15.
1139.5     1217.                   7.
1150.2     1151.         6.
1217.7     1217.        52.
1242.2     1242.        29.
ENDDATA             95
ENDSUBENT          111
SUBENT        14021003   20050701   20050909                  1336
BIB                  4          5
REACTION   (79-AU-197(N,INL)79-AU-197,PAR,SIG,G,REL)
EN-SEC     (E,G) Transition gamma ray
            (LVL-INI,79-AU-197) Initial level
ERR-ANALYS (DATA-ERR) No information
STATUS     Data received in tables from the author
ENDBIB               5
NOCOMMON             0          0
DATA                 6        181
E          LVL-INI    EN         EN-RSL     DATA       DATA-ERR
KEV        KEV        MEV        MEV        ARB-UNITS  ARB-UNITS
174.8       584.       1.104     0.033       98.6438    0.623891
174.8       584.       1.173     0.058      128.901     0.664334
174.8       584.       1.3       0.073      158.466     0.722574
174.8       584.       1.454     0.086      196.544     0.77955
174.8       584.       1.638     0.103      230.246     0.824317
174.8       584.       1.859     0.125      269.032     0.873698
174.8       584.       2.128     0.153      325.922     0.943785
174.8       584.       2.461     0.19       370.004     0.987345
174.8       584.       2.879     0.241      384.415     0.984428
174.8       584.       3.414     0.312      388.058     0.98148
174.8       584.       4.116     0.414      365.058     0.939555
174.8       584.       4.29      0.094      359.663     1.98805
174.8       584.       4.478     0.1        359.319     1.9799
174.8       584.       4.679     0.107      349.74      1.94982
174.8       584.       4.894     0.114      323.233     1.85167
174.8       584.       5.123     0.122      320.9       1.83933
174.8       584.       5.37      0.131      319.103     1.8487
174.8       584.       5.634     0.141      313.913     1.84609
174.8       584.       5.919     0.152      298.187     1.80885
174.8       584.       6.226     0.164      284.413     1.76984
174.8       584.       6.558     0.177      274.733     1.75517
174.8       584.       6.917     0.192      254.758     1.67667
174.8       584.       7.307     0.208      250.548     1.67233
174.8       584.       7.731     0.227      247.319     1.68863
174.8       584.       8.192     0.248      246.508     1.69452
174.8       584.       8.697     0.271      209.341     1.5946
174.8       584.       9.25      0.297      162.051     1.4173
174.8       584.       9.858     0.327      114.688     1.2431
174.8       584.      10.528     0.362       80.9123    1.10974
174.8       584.      11.269     0.401       55.4372    0.99417
174.8       584.      12.092     0.446       42.0685    0.941655
174.8       584.      13.01      0.498       32.4284    0.90477
174.8       584.      14.037     0.558       27.5207    0.882143
358.0       767.       1.104     0.033        1.76485   0.268734
358.0       767.       1.173     0.058        3.57137   0.268711
358.0       767.       1.3       0.073        5.74651   0.284995
358.0       767.       1.454     0.086        9.01373   0.309656
358.0       767.       1.638     0.103       13.7668    0.342395
358.0       767.       1.859     0.125       23.36      0.392958
358.0       767.       2.128     0.153       34.7423    0.446229
358.0       767.       2.461     0.19        48.9276    0.497385
358.0       767.       2.879     0.241       69.0064    0.550734
358.0       767.       3.414     0.312      100.979     0.627832
358.0       767.       4.116     0.414      146.595     0.709219
358.0       767.       4.29      0.094      164.215     1.58008
358.0       767.       4.478     0.1        178.035     1.62746
358.0       767.       4.679     0.107      191.514     1.65785
358.0       767.       4.894     0.114      194.195     1.64084
358.0       767.       5.123     0.122      207.884     1.67724
358.0       767.       5.37      0.131      225.366     1.75809
358.0       767.       5.634     0.141      243.629     1.81665
358.0       767.       5.919     0.152      255.734     1.84742
358.0       767.       6.226     0.164      270.079     1.89243
358.0       767.       6.558     0.177      287.216     1.94009
358.0       767.       6.917     0.192      292.18      1.93046
358.0       767.       7.307     0.208      314.448     1.99068
358.0       767.       7.731     0.227      343.58      2.0845
358.0       767.       8.192     0.248      380.528     2.2031
358.0       767.       8.697     0.271      377.777     2.19058
358.0       767.       9.25      0.297      339.071     2.06655
358.0       767.       9.858     0.327      269.341     1.85589
358.0       767.      10.528     0.362      210.225     1.68816
358.0       767.      11.269     0.401      154.923     1.50577
358.0       767.      12.092     0.446      117.184     1.39138
358.0       767.      13.01      0.498       88.7474    1.27672
358.0       767.      14.037     0.558       68.8363    1.20866
558.8      1414.       1.173     0.058        0.0207801 0.134378
558.8      1414.       1.3       0.073        0.0249432 0.139871
558.8      1414.       1.454     0.086        0.485486  0.15462
558.8      1414.       1.638     0.103        2.01448   0.171983
558.8      1414.       1.859     0.125        3.36069   0.192675
558.8      1414.       2.128     0.153        3.56116   0.208702
558.8      1414.       2.461     0.19         4.04961   0.21795
558.8      1414.       2.879     0.241        4.79686   0.231732
558.8      1414.       3.414     0.312        5.8925    0.249621
558.8      1414.       4.116     0.414        6.94471   0.260638
558.8      1414.       4.29      0.094        7.77968   0.569884
558.8      1414.       4.478     0.1          7.9651    0.579572
558.8      1414.       4.679     0.107        8.48771   0.573557
558.8      1414.       4.894     0.114        7.71326   0.557701
558.8      1414.       5.123     0.122        8.43128   0.571929
558.8      1414.       5.37      0.131       10.2873    0.587636
558.8      1414.       5.634     0.141       10.5096    0.598461
558.8      1414.       5.919     0.152       10.4872    0.607245
558.8      1414.       6.226     0.164       10.7665    0.605657
558.8      1414.       6.558     0.177       10.8477    0.608889
558.8      1414.       6.917     0.192       10.5729    0.582822
558.8      1414.       7.307     0.208       10.5951    0.59967
558.8      1414.       7.731     0.227       10.8688    0.610391
558.8      1414.       8.192     0.248       11.2387    0.630045
558.8      1414.       8.697     0.271       10.4661    0.608767
558.8      1414.       9.25      0.297        9.94519   0.565261
558.8      1414.       9.858     0.327        6.11101   0.515158
558.8      1414.      10.528     0.362        4.58371   0.488299
576.5       856.       1.104     0.033        2.07667   0.030441
576.5       856.       1.173     0.058        2.64273   0.0321011
576.5       856.       1.3       0.073        3.30551   0.0349135
576.5       856.       1.454     0.086        3.95033   0.037316
576.5       856.       1.638     0.103        4.45571   0.0388688
576.5       856.       1.859     0.125        4.76955   0.0397794
576.5       856.       2.128     0.153        5.13813   0.0408988
576.5       856.       2.461     0.19         5.70119   0.0425329
576.5       856.       2.879     0.241        6.24192   0.0438149
576.5       856.       3.414     0.312        7.11553   0.0464455
576.5       856.       4.116     0.414        7.83225   0.0475757
576.5       856.       4.29      0.094        8.40806   0.104313
576.5       856.       4.478     0.1          8.53231   0.105221
576.5       856.       4.679     0.107        8.72254   0.105697
576.5       856.       4.894     0.114        8.57967   0.102714
576.5       856.       5.123     0.122        8.95266   0.104191
576.5       856.       5.37      0.131        9.36332   0.107375
576.5       856.       5.634     0.141       10.115     0.110825
576.5       856.       5.919     0.152        9.90446   0.1103
576.5       856.       6.226     0.164        9.83652   0.110144
576.5       856.       6.558     0.177       10.2675    0.111607
576.5       856.       6.917     0.192        9.77685   0.107598
576.5       856.       7.307     0.208       10.2296    0.110327
576.5       856.       7.731     0.227       10.4093    0.112541
576.5       856.       8.192     0.248       10.5773    0.11445
576.5       856.       8.697     0.271        9.87259   0.110856
576.5       856.       9.25      0.297        8.15303   0.101277
576.5       856.       9.858     0.327        6.25696   0.0909861
576.5       856.      10.528     0.362        4.66938   0.081973
594.4      1004.       1.638     0.103        3.39367   0.665205
594.4      1004.       1.859     0.125       11.1775    0.754023
594.4      1004.       2.128     0.153       20.5768    0.830319
594.4      1004.       2.461     0.19        28.9854    0.904087
594.4      1004.       2.879     0.241       41.4673    0.968195
594.4      1004.       3.414     0.312       54.3954    1.06612
594.4      1004.       4.116     0.414       69.4706    1.12273
594.4      1004.       4.29      0.094       74.9407    2.44327
594.4      1004.       4.478     0.1         79.0313    2.49228
594.4      1004.       4.679     0.107       82.048     2.48185
594.4      1004.       4.894     0.114       81.0999    2.42708
594.4      1004.       5.123     0.122       82.5785    2.48174
594.4      1004.       5.37      0.131       88.018     2.55143
594.4      1004.       5.634     0.141       96.5891    2.60168
594.4      1004.       5.919     0.152       94.2359    2.57472
594.4      1004.       6.226     0.164       97.1229    2.60062
594.4      1004.       6.558     0.177       98.8045    2.64776
594.4      1004.       6.917     0.192      100.087     2.5286
594.4      1004.       7.307     0.208       96.914     2.61453
594.4      1004.       7.731     0.227      103.565     2.68078
594.4      1004.       8.192     0.248      109.525     2.72118
594.4      1004.       8.697     0.271      108.769     2.67189
594.4      1004.       9.25      0.297       87.9736    2.47637
594.4      1004.       9.858     0.327       66.0161    2.19661
594.4      1004.      10.528     0.362       44.3656    1.98794
594.4      1004.      11.269     0.401       27.3302    1.79874
594.4      1004.      12.092     0.446       16.1816    1.69695
594.4      1004.      13.01      0.498       11.8826    1.60857
594.4      1004.      14.037     0.558        7.12987   1.56461
684.2      1231.       1.104     0.033        0.03568   0.0561467
684.2      1231.       1.173     0.058        0.04578   0.052946
684.2      1231.       1.3       0.073        0.49916   0.0616158
684.2      1231.       1.454     0.086        1.44636   0.077278
684.2      1231.       1.638     0.103        2.31948   0.0882252
684.2      1231.       1.859     0.125        3.0953    0.0996266
684.2      1231.       2.128     0.153        3.70693   0.106953
684.2      1231.       2.461     0.19         4.18515   0.112566
684.2      1231.       2.879     0.241        4.61621   0.119139
684.2      1231.       3.414     0.312        5.69271   0.130203
684.2      1231.       4.116     0.414        7.05613   0.138058
684.2      1231.       4.29      0.094        7.74056   0.304251
684.2      1231.       4.478     0.1          7.71656   0.305614
684.2      1231.       4.679     0.107        8.48339   0.309481
684.2      1231.       4.894     0.114        8.66585   0.300559
684.2      1231.       5.123     0.122        8.21784   0.304524
684.2      1231.       5.37      0.131        8.5949    0.316595
684.2      1231.       5.634     0.141       10.0776    0.325374
684.2      1231.       5.919     0.152        9.67899   0.322921
684.2      1231.       6.226     0.164       10.1076    0.32909
684.2      1231.       6.558     0.177       10.0964    0.327608
684.2      1231.       6.917     0.192       10.2565    0.324964
684.2      1231.       7.307     0.208       10.8651    0.328804
684.2      1231.       7.731     0.227       10.7333    0.335314
684.2      1231.       8.192     0.248       10.8599    0.346119
684.2      1231.       8.697     0.271       10.9425    0.334287
684.2      1231.       9.25      0.297        7.93639   0.3016
684.2      1231.       9.858     0.327        6.45623   0.275498
684.2      1231.      10.528     0.362        4.67873   0.250171
ENDDATA            183
ENDSUBENT          193
SUBENT        14021004   20050701   20050909                  1336
BIB                  4          5
REACTION   (77-IR-193(N,INL)77-IR-193,PAR,SIG,G,REL)
EN-SEC     (E,G) Transition gamma ray
            (LVL-INI,77-IR-193) Initial level
ERR-ANALYS (DATA-ERR) No information
STATUS     Data received in tables from the author
ENDBIB               5
NOCOMMON             0          0
DATA                 6        157
E          LVL-INI    EN         EN-RSL     DATA       DATA-ERR
KEV        KEV        MEV        MEV        ARB-UNITS  ARB-UNITS
180.1      180.0       0.213     0.008       0.214284  0.0595232
180.1      180.0       0.229     0.008       0.251165  0.0627912
180.1      180.0       0.246     0.009       0.244627  0.0612032
180.1      180.0       0.265     0.011       0.757824  0.0873955
180.1      180.0       0.287     0.012       1.30621   0.114797
180.1      180.0       0.312     0.013       2.11277   0.143017
180.1      180.0       0.339     0.015       3.60454   0.180944
180.1      180.0       0.371     0.017       5.32339   0.221839
180.1      180.0       0.408     0.02        5.49887   0.226861
180.1      180.0       0.45      0.023       7.00583   0.245591
180.1      180.0       0.499     0.027       7.81271   0.24682
180.1      180.0       0.556     0.032       7.63456   0.238757
180.1      180.0       0.624     0.038       8.92514   0.241451
180.1      180.0       0.705     0.046       8.0316    0.231648
180.1      180.0       0.804     0.056       8.53639   0.232074
180.1      180.0       0.925     0.069       8.91106   0.231208
180.1      180.0       1.075     0.086       8.43875   0.227137
180.1      180.0       1.104     0.033       8.54932   0.285614
180.1      180.0       1.173     0.058       8.65513   0.288304
180.1      180.0       1.3       0.073       9.46795   0.290945
180.1      180.0       1.454     0.086       9.87022   0.298573
180.1      180.0       1.638     0.103      10.3551    0.302156
180.1      180.0       1.859     0.125       9.4994    0.301804
180.1      180.0       2.128     0.153       9.82186   0.309427
180.1      180.0       2.461     0.19        9.42169   0.311494
180.1      180.0       2.879     0.241       8.85625   0.317579
180.1      180.0       3.414     0.312       8.43819   0.322152
180.1      180.0       4.116     0.414       7.90633   0.309294
180.1      180.0       4.29      0.094       7.6931    0.660948
180.1      180.0       4.478     0.1         7.29477   0.649728
180.1      180.0       4.679     0.107       7.38414   0.661831
180.1      180.0       4.894     0.114       7.57185   0.649157
180.1      180.0       5.123     0.122       6.19972   0.649241
180.1      180.0       5.37      0.131       5.55471   0.652821
180.1      180.0       5.634     0.141       7.26607   0.659208
180.1      180.0       5.919     0.152       6.10009   0.657379
180.1      180.0       6.226     0.164       5.84888   0.664726
180.1      180.0       6.558     0.177       6.2319    0.680131
180.1      180.0       6.917     0.192       4.66482   0.639532
180.1      180.0       7.307     0.208       5.78423   0.684306
180.1      180.0       7.731     0.227       5.86642   0.705391
180.1      180.0       8.192     0.248       5.06322   0.715834
180.1      180.0       8.697     0.271       5.36613   0.726087
180.1      180.0       9.25      0.297       3.68891   0.69602
180.1      180.0       9.858     0.327       3.56882   0.670242
180.1      180.0      10.528     0.362       2.63295   0.668062
180.1      180.0      11.269     0.401       1.20247   0.654918
180.1      180.0      12.092     0.446       2.62463   0.695832
180.1      180.0      13.01      0.498       2.5307    0.710871
180.1      180.0      14.037     0.558       1.35462   0.719118
269.5      833.        1.104     0.033       0.644109  0.0734426
269.5      833.        1.173     0.058       1.02526   0.0806323
269.5      833.        1.3       0.073       1.40615   0.0878846
269.5      833.        1.454     0.086       1.86953   0.09167
269.5      833.        1.638     0.103       2.67994   0.101551
269.5      833.        1.859     0.125       3.10356   0.107345
269.5      833.        2.128     0.153       4.16057   0.117274
269.5      833.        2.461     0.19        4.99893   0.125432
269.5      833.        2.879     0.241       5.43545   0.130877
269.5      833.        3.414     0.312       6.48983   0.141024
269.5      833.        4.116     0.414       7.37314   0.142165
269.5      833.        4.29      0.094       8.02698   0.31473
269.5      833.        4.478     0.1         7.78025   0.304399
269.5      833.        4.679     0.107       7.82453   0.314554
269.5      833.        4.894     0.114       8.45143   0.308035
269.5      833.        5.123     0.122       8.61481   0.314494
269.5      833.        5.37      0.131       8.55826   0.319619
269.5      833.        5.634     0.141       8.96128   0.311865
269.5      833.        5.919     0.152       8.74178   0.315985
269.5      833.        6.226     0.164       8.06299   0.318701
269.5      833.        6.558     0.177       9.35778   0.337545
269.5      833.        6.917     0.192       9.45824   0.323875
269.5      833.        7.307     0.208       9.33492   0.340041
269.5      833.        7.731     0.227      10.25      0.348777
269.5      833.        8.192     0.248       9.19447   0.349028
269.5      833.        8.697     0.271       8.98757   0.357202
269.5      833.        9.25      0.297       6.72005   0.328385
269.5      833.        9.858     0.327       4.44677   0.301024
269.5      833.       10.528     0.362       2.80407   0.288148
269.5      833.       11.269     0.401       2.41106   0.277295
269.5      833.       12.092     0.446       2.19102   0.283229
269.5      833.       13.01      0.498       1.77377   0.286293
269.5      833.       14.037     0.558       1.96932   0.292836
357.8      358.0       0.339     0.015       0.0213787 0.00801701
357.8      358.0       0.371     0.017       0.860168  0.0351459
357.8      358.0       0.408     0.02        1.7831    0.046245
357.8      358.0       0.45      0.023       2.56279   0.0521606
357.8      358.0       0.499     0.027       3.48939   0.0561971
357.8      358.0       0.556     0.032       3.49883   0.0540678
357.8      358.0       0.624     0.038       4.32828   0.0559041
357.8      358.0       0.705     0.046       4.63402   0.0553722
357.8      358.0       0.804     0.056       4.91234   0.0546889
357.8      358.0       0.925     0.069       5.47737   0.0550433
357.8      358.0       1.075     0.086       5.90609   0.0546095
357.8      358.0       1.104     0.033       5.88449   0.0685237
357.8      358.0       1.173     0.058       6.4104    0.0694365
357.8      358.0       1.3       0.073       6.54874   0.0697346
357.8      358.0       1.454     0.086       6.74417   0.0694883
357.8      358.0       1.638     0.103       7.02306   0.0692456
357.8      358.0       1.859     0.125       7.08115   0.0689934
357.8      358.0       2.128     0.153       7.65691   0.0720536
357.8      358.0       2.461     0.19        8.20309   0.0739307
357.8      358.0       2.879     0.241       8.59471   0.0760612
357.8      358.0       3.414     0.312       9.20793   0.0782394
357.8      358.0       4.116     0.414       9.22772   0.0761699
357.8      358.0       4.29      0.094       9.46929   0.166449
357.8      358.0       4.478     0.1         9.24473   0.161651
357.8      358.0       4.679     0.107       9.77573   0.166602
357.8      358.0       4.894     0.114       9.29793   0.161593
357.8      358.0       5.123     0.122       9.16038   0.161787
357.8      358.0       5.37      0.131       9.39967   0.164369
357.8      358.0       5.634     0.141       9.50763   0.161163
357.8      358.0       5.919     0.152       8.97088   0.159813
357.8      358.0       6.226     0.164       9.22777   0.163075
357.8      358.0       6.558     0.177       9.43458   0.167899
357.8      358.0       6.917     0.192       8.56245   0.159734
357.8      358.0       7.307     0.208       8.95942   0.167268
357.8      358.0       7.731     0.227       8.67937   0.164624
357.8      358.0       8.192     0.248       8.93452   0.172977
357.8      358.0       8.697     0.271       7.99111   0.170299
357.8      358.0       9.25      0.297       6.2469    0.157617
357.8      358.0       9.858     0.327       4.81802   0.141924
357.8      358.0      10.528     0.362       3.59249   0.133488
357.8      358.0      11.269     0.401       2.83551   0.127644
357.8      358.0      12.092     0.446       2.70365   0.126475
357.8      358.0      13.01      0.498       2.30363   0.125565
357.8      358.0      14.037     0.558       1.9627    0.124976
451.4      930.0       1.104     0.033       0.205936  0.148364
451.4      930.0       1.173     0.058       0.189236  0.158339
451.4      930.0       1.859     0.125       0.312497  0.17591
451.4      930.0       2.128     0.153       0.166761  0.182938
451.4      930.0       2.461     0.19        0.552254  0.19116
451.4      930.0       2.879     0.241       0.597204  0.199634
451.4      930.0       3.414     0.312       1.69215   0.217083
451.4      930.0       4.116     0.414       2.34947   0.214841
451.4      930.0       4.29      0.094       2.80129   0.474234
451.4      930.0       4.478     0.1         2.77325   0.465211
451.4      930.0       4.679     0.107       2.94513   0.463617
451.4      930.0       4.894     0.114       3.94953   0.458031
451.4      930.0       5.123     0.122       4.47992   0.476051
451.4      930.0       5.37      0.131       4.46721   0.480569
451.4      930.0       5.634     0.141       4.70131   0.478546
451.4      930.0       5.919     0.152       5.47978   0.47941
451.4      930.0       6.226     0.164       5.58069   0.506502
451.4      930.0       6.558     0.177       6.71942   0.511214
451.4      930.0       6.917     0.192       7.08589   0.505141
451.4      930.0       7.307     0.208       8.6118    0.536393
451.4      930.0       7.731     0.227       8.92176   0.555801
451.4      930.0       8.192     0.248       9.81052   0.583027
451.4      930.0       8.697     0.271      10.0514    0.584178
451.4      930.0       9.25      0.297       8.88066   0.548394
451.4      930.0       9.858     0.327       8.06426   0.510874
451.4      930.0      10.528     0.362       6.33901   0.500592
451.4      930.0      11.269     0.401       3.95401   0.471397
451.4      930.0      12.092     0.446       3.38407   0.462881
451.4      930.0      13.01      0.498       3.23486   0.475163
451.4      930.0      14.037     0.558       2.60951   0.412027
ENDDATA            159
ENDSUBENT          169
ENDENTRY             4
