ENTRY            O1928   20220119   20220607   20220504       O087
SUBENT        O1928001   20220119   20220607   20220504       O087
BIB                  9         16
TITLE      Isobaric analogue resonances studied by (p,p)
           reactions on Yb-170, Yb-172, Yb-174 and Yb-176.
AUTHOR     (P.Foissel, Y.Cassagnou, M.Lamehi-Rachti, C.Levi,
           W.Mittig, L.Papineau)
INSTITUTE  (2FR SAC)
REFERENCE  (J,NP/A,178,640,1972)
DETECTOR   (SIBAR) 2 mm thick surface-barrier detectors
MONITOR    (57-LA-139(P,EL)57-LA-139,,DA)
SAMPLE     The targets were prepared by vacuum evaporation of
           isotopically enriched oxides. To get a good resolution,
           the thickness of the target was limited to about
           150 mug/cm**2, evaporated onto 25 mug/cm**2 carbon
           backings.
ADD-RES    (P-SPC)
HISTORY    (20120215C)sb
           (20220119U) SD: Correction in Subent 015.
ENDBIB              16
NOCOMMON             0          0
ENDSUBENT           19
SUBENT        O1928002   20120216   20120702   20120622       O047
BIB                  4          4
REACTION   (70-YB-174(P,EL)70-YB-174,,DA)
FACILITY   (VDGT,2FR SAC) the HVEC EN Tandem Van de Graaff
STATUS     (CURVE).By CAJAD-fig.2 of J,NP/A,178,640,1972
ERR-ANALYS  The statistical errors are within the point dimensions
ENDBIB               4
NOCOMMON             0          0
DATA                 3        416
ANG        EN         DATA
ADEG       MEV        MB/SR
        90.     11.030    167.916
        90.     11.073    165.634
        90.     11.129    161.962
        90.     11.178    161.568
        90.     11.229    157.201
        90.     11.251    157.401
        90.     11.273    155.515
        90.     11.304    151.643
        90.     11.324    147.671
        90.     11.355    149.858
        90.     11.375    147.575
        90.     11.453    142.911
        90.     11.482    140.529
        90.     11.504    142.716
        90.     11.528    140.532
        90.     11.550    139.143
        90.     11.572    137.456
        90.     11.586    139.046
        90.     11.616    136.962
        90.     11.628    134.877
        90.     11.652    132.991
        90.     11.671    133.489
        90.     11.693    132.596
        90.     11.708    130.809
        90.     11.713    128.823
        90.     11.732    129.917
        90.     11.747    129.123
        90.     11.771    127.635
        90.     11.791    127.338
        90.     11.805    127.140
        90.     11.825    125.552
        90.     11.834    125.156
        90.     11.847    124.461
        90.     11.871    123.668
        90.     11.898    122.478
        90.     11.910    121.883
        90.     11.929    120.990
        90.     11.951    121.190
        90.     11.973    120.695
        90.     11.988    118.610
        90.     12.009    119.505
        90.     12.026    117.023
        90.     12.043    115.931
        90.     12.065    114.641
        90.     12.087    115.239
        90.     12.107    112.360
        90.     12.131    113.057
        90.     12.148    110.972
        90.     12.170    111.172
        90.     12.184    109.484
        90.     12.206    110.280
        90.     12.223    107.103
        90.     12.250    105.515
        90.     12.267    107.304
        90.     12.284    105.815
        90.     12.323    102.738
        90.     12.350    103.734
        90.     12.374    105.821
        90.     12.381    100.855
        90.     12.408    100.658
        90.     12.427     99.368
        90.     12.444     99.369
        90.     12.474     94.206
        90.     12.498     95.002
        90.     12.527     90.732
        90.     12.539     93.117
        90.     12.561     93.119
        90.     12.576     93.120
        90.     12.602     92.923
        90.     12.629     93.819
        90.     12.639     93.025
        90.     12.668     92.033
        90.     12.673     93.524
        90.     12.697     93.426
        90.     12.721     93.428
        90.     12.738     92.137
        90.     12.763     93.530
        90.     12.784     93.233
        90.     12.818     93.037
        90.     12.855     93.039
        90.     12.884     93.141
        90.     12.899     91.453
        90.     12.937     90.264
        90.     13.078     82.823
        90.     13.161     79.451
        90.     13.239     76.774
        90.     13.317     74.892
        90.     13.404     74.898
        90.     13.479     73.611
        90.     13.550     72.623
        90.     13.637     71.039
        90.     13.717     70.548
        90.     13.792     65.984
        90.     13.870     67.380
        90.     14.025     64.907
        90.     14.069     63.320
        90.     14.164     63.923
        90.     14.266     63.731
        90.     14.365     59.466
        90.     14.460     59.572
        90.     14.560     55.307
        90.     14.666     56.010
        90.     14.764     53.136
       125.     11.037     55.203
       125.     11.090     54.156
       125.     11.136     52.710
       125.     11.187     52.110
       125.     11.233     50.764
       125.     11.260     50.166
       125.     11.284     48.871
       125.     11.301     48.174
       125.     11.330     48.023
       125.     11.354     47.126
       125.     11.383     47.323
       125.     11.410     46.874
       125.     11.431     43.838
       125.     11.455     44.632
       125.     11.477     42.840
       125.     11.504     44.232
       125.     11.533     42.887
       125.     11.552     42.338
       125.     11.591     42.634
       125.     11.613     41.489
       125.     11.632     40.394
       125.     11.653     38.999
       125.     11.663     38.253
       125.     11.692     37.654
       125.     11.714     37.503
       125.     11.729     38.497
       125.     11.746     39.093
       125.     11.770     40.136
       125.     11.789     39.737
       125.     11.814     40.333
       125.     11.828     40.033
       125.     11.845     39.535
       125.     11.870     39.533
       125.     11.889     38.786
       125.     11.915     38.585
       125.     11.937     38.335
       125.     11.944     37.589
       125.     11.957     37.687
       125.     11.971     37.885
       125.     11.991     37.238
       125.     12.015     37.037
       125.     12.025     37.534
       125.     12.049     37.781
       125.     12.071     37.382
       125.     12.092     37.779
       125.     12.102     37.131
       125.     12.131     37.328
       125.     12.131     37.328
       125.     12.151     36.880
       125.     12.175     36.530
       125.     12.189     35.683
       125.     12.216     35.682
       125.     12.223     34.985
       125.     12.247     34.188
       125.     12.259     33.142
       125.     12.281     33.788
       125.     12.308     34.234
       125.     12.325     33.138
       125.     12.347     33.137
       125.     12.359     32.539
       125.     12.385     32.090
       125.     12.409     31.243
       125.     12.426     30.197
       125.     12.443     29.798
       125.     12.479     28.901
       125.     12.499     28.850
       125.     12.521     28.202
       125.     12.540     27.952
       125.     12.559     27.951
       125.     12.579     27.900
       125.     12.615     28.544
       125.     12.642     29.537
       125.     12.664     29.387
       125.     12.683     28.789
       125.     12.712     28.836
       125.     12.732     28.885
       125.     12.741     27.293
       125.     12.753     27.740
       125.     12.770     27.341
       125.     12.816     27.189
       125.     12.858     26.141
       125.     12.877     27.085
       125.     12.906     26.885
       125.     12.938     26.137
       125.     12.996     25.735
       125.     13.078     24.984
       125.     13.158     23.835
       125.     13.238     22.835
       125.     13.318     21.388
       125.     13.398     19.940
       125.     13.475     18.095
       125.     13.550     19.035
       125.     13.635     18.682
       125.     13.708     17.882
       125.     13.764     17.082
       125.     13.863     16.877
       125.     13.965     15.926
       125.     14.064     15.074
       125.     14.164     15.317
       125.     14.263     15.659
       125.     14.360     14.111
       125.     14.460     14.353
       125.     14.564     12.855
       125.     14.661     13.197
       125.     14.758     12.644
       141.     11.037     40.430
       141.     11.074     39.732
       141.     11.132     38.634
       141.     11.180     38.581
       141.     11.224     37.584
       141.     11.253     36.836
       141.     11.279     35.590
       141.     11.304     35.141
       141.     11.325     34.742
       141.     11.354     34.790
       141.     11.379     33.943
       141.     11.405     33.742
       141.     11.422     31.801
       141.     11.449     32.098
       141.     11.473     31.201
       141.     11.497     31.598
       141.     11.526     30.850
       141.     11.553     30.749
       141.     11.577     30.747
       141.     11.596     30.597
       141.     11.609     30.099
       141.     11.628     29.451
       141.     11.647     28.305
       141.     11.664     27.558
       141.     11.688     27.955
       141.     11.708     28.550
       141.     11.725     29.743
       141.     11.749     30.637
       141.     11.771     30.984
       141.     11.786     30.933
       141.     11.808     30.932
       141.     11.822     30.533
       141.     11.839     30.184
       141.     11.854     29.835
       141.     11.873     29.535
       141.     11.890     29.086
       141.     11.907     28.787
       141.     11.931     28.537
       141.     11.967     28.236
       141.     11.992     28.035
       141.     12.018     27.885
       141.     12.040     27.635
       141.     12.052     27.286
       141.     12.069     26.986
       141.     12.098     26.885
       141.     12.105     26.238
       141.     12.127     26.535
       141.     12.144     25.937
       141.     12.173     25.885
       141.     12.183     25.238
       141.     12.217     25.236
       141.     12.231     24.688
       141.     12.246     23.792
       141.     12.265     23.442
       141.     12.292     23.839
       141.     12.311     24.285
       141.     12.323     23.439
       141.     12.340     23.637
       141.     12.352     23.686
       141.     12.362     22.989
       141.     12.389     22.241
       141.     12.406     21.345
       141.     12.432     21.492
       141.     12.442     20.049
       141.     12.480     19.499
       141.     12.505     18.851
       141.     12.531     18.452
       141.     12.556     18.500
       141.     12.563     19.047
       141.     12.585     18.647
       141.     12.609     18.944
       141.     12.628     19.441
       141.     12.641     19.042
       141.     12.662     18.643
       141.     12.687     18.641
       141.     12.706     18.292
       141.     12.721     19.186
       141.     12.745     18.439
       141.     12.759     18.885
       141.     12.784     18.834
       141.     12.808     18.435
       141.     12.820     18.882
       141.     12.842     18.383
       141.     12.871     18.480
       141.     12.898     18.578
       141.     12.941     17.830
       141.     12.980     17.429
       141.     13.079     15.931
       141.     13.193     15.078
       141.     13.273     13.979
       141.     13.368     12.680
       141.     13.469     12.723
       141.     13.567     13.364
       141.     13.671     12.562
       141.     13.768     12.506
       141.     13.862     12.450
       141.     13.967     11.698
       141.     14.059     11.394
       141.     14.166     11.437
       141.     14.258     11.083
       141.     14.367     10.778
       141.     14.471     10.224
       141.     14.561      9.522
       141.     14.658      9.566
       141.     14.765      9.460
       160.     11.027     32.604
       160.     11.078     32.154
       160.     11.129     31.108
       160.     11.179     30.286
       160.     11.219     29.688
       160.     11.255     29.685
       160.     11.273     28.641
       160.     11.299     28.342
       160.     11.324     28.564
       160.     11.346     28.265
       160.     11.364     27.295
       160.     11.397     27.293
       160.     11.419     25.159
       160.     11.448     26.070
       160.     11.470     25.156
       160.     11.502     25.089
       160.     11.518     24.175
       160.     11.553     24.369
       160.     11.588     24.367
       160.     11.610     23.648
       160.     11.624     22.935
       160.     11.653     22.336
       160.     11.678     22.335
       160.     11.685     23.031
       160.     11.712     23.427
       160.     11.731     24.371
       160.     11.751     24.718
       160.     11.773     24.418
       160.     11.797     24.018
       160.     11.814     24.117
       160.     11.826     23.768
       160.     11.843     23.021
       160.     11.869     22.522
       160.     11.891     22.222
       160.     11.903     21.724
       160.     11.923     21.524
       160.     11.945     21.522
       160.     11.964     21.621
       160.     11.983     21.022
       160.     12.010     20.722
       160.     12.024     19.528
       160.     12.046     18.929
       160.     12.068     18.630
       160.     12.087     18.429
       160.     12.107     18.080
       160.     12.131     18.327
       160.     12.143     17.929
       160.     12.170     17.877
       160.     12.187     17.528
       160.     12.206     17.974
       160.     12.230     17.426
       160.     12.247     17.673
       160.     12.264     17.473
       160.     12.281     17.821
       160.     12.301     17.571
       160.     12.325     17.619
       160.     12.354     17.418
       160.     12.371     16.472
       160.     12.388     16.123
       160.     12.405     15.425
       160.     12.426     15.225
       160.     12.443     14.478
       160.     12.482     13.083
       160.     12.496     12.385
       160.     12.518     12.981
       160.     12.538     13.527
       160.     12.557     13.178
       160.     12.581     13.425
       160.     12.601     13.075
       160.     12.620     12.378
       160.     12.635     13.024
       160.     12.657     12.674
       160.     12.679     13.369
       160.     12.695     13.020
       160.     12.722     13.913
       160.     12.746     13.265
       160.     12.763     13.712
       160.     12.783     14.009
       160.     12.822     13.460
       160.     12.856     13.209
       160.     12.899     13.505
       160.     12.916     13.056
       160.     12.945     12.805
       160.     12.982     12.704
       160.     13.071     11.405
       160.     13.149     10.803
       160.     13.224      9.953
       160.     13.304      9.301
       160.     13.389      9.545
       160.     13.467     10.634
       160.     13.542     10.281
       160.     13.622      9.580
       160.     13.782      8.774
       160.     13.867      8.719
       160.     13.944      8.565
       160.     14.063      8.260
       160.     14.165      7.955
       160.     14.260      7.849
       160.     14.364      7.744
       160.     14.461      7.439
       160.     14.563      6.687
       160.     14.657      6.631
       160.     14.759      6.675
ENDDATA            418
ENDSUBENT          427
SUBENT        O1928003   20120216   20120702   20120622       O047
BIB                  6          6
REACTION   (70-YB-174(P,INL)70-YB-174,PAR,DA)
FACILITY   (VDGT,2FR SAC) the HVEC EN Tandem Van de Graaff
EN-SEC     (E-LVL,70-YB-174)
LEVEL-PROP (70-YB-174,E-LVL=0.076,SPIN=2.,PARITY=+1.)
STATUS     (CURVE).By CAJAD-fig.3 of J,NP/A,178,640,1972
ERR-ANALYS (DATA-ERR).The uncertainty is reported on figure.
ENDBIB               6
COMMON               1          3
E-LVL
MEV
0.076
ENDCOMMON            3
DATA                 4        405
ANG        EN         DATA       DATA-ERR
ADEG       MEV        MB/SR      MB/SR
        90.     11.052      4.989
        90.     11.113      4.905
        90.     11.156      4.784
        90.     11.206      4.992
        90.     11.305      4.628
        90.     11.358      4.849
        90.     11.406      4.728
        90.     11.459      4.826
        90.     11.493      4.754
        90.     11.512      4.791
        90.     11.543      4.694
        90.     11.582      4.427
        90.     11.606      4.622
        90.     11.621      4.354
        90.     11.645      4.050
        90.     11.664      4.294
        90.     11.664      4.075
        90.     11.684      3.929
        90.     11.707      4.124
        90.     11.729      4.674
        90.     11.740      5.247
        90.     11.760      5.211
        90.     11.772      5.174
        90.     11.783      5.540
        90.     11.802      5.821
        90.     11.829      5.602
        90.     11.844      5.395
        90.     11.862      5.871
        90.     11.889      5.884
        90.     11.904      5.494
        90.     11.918      6.055
        90.     11.949      6.093
        90.     11.966      6.325
        90.     11.983      6.118
        90.     12.006      6.265
        90.     12.009      6.009
        90.     12.026      6.155
        90.     12.055      6.083      0.390
        90.     12.081      5.949
        90.     12.110      5.620
        90.     12.151      5.926
        90.     12.166      5.451
        90.     12.180      5.890
        90.     12.202      5.793
        90.     12.223      5.891
        90.     12.248      5.733
        90.     12.267      5.221
        90.     12.286      5.624
        90.     12.305      6.039
        90.     12.327      5.857
        90.     12.343      6.576
        90.     12.367      6.540
        90.     12.384      6.224
        90.     12.408      6.431
        90.     12.423      5.944
        90.     12.442      6.310
        90.     12.461      6.628
        90.     12.475      6.482
        90.     12.504      6.482
        90.     12.523      6.727
        90.     12.540      6.837
        90.     12.559      6.910
        90.     12.581      6.825
        90.     12.605      6.570
        90.     12.610      6.850
        90.     12.639      6.778
        90.     12.663      6.864
        90.     12.682      6.742
        90.     12.697      6.291
        90.     12.714      6.633
        90.     12.737      7.085
        90.     12.759      6.683
        90.     12.778      7.024
        90.     12.800      7.110      0.354
        90.     12.819      6.927
        90.     12.846      6.928
        90.     12.857      7.319
        90.     12.891      7.112
        90.     12.930      6.820
        90.     12.994      7.444
        90.     13.079      6.409
        90.     13.161      6.362
        90.     13.241      6.424
        90.     13.312      6.865
        90.     13.392      7.025
        90.     13.474      6.868
        90.     13.556      6.467
        90.     13.630      6.579
        90.     13.712      6.434
        90.     13.789      6.070
        90.     13.869      6.254
        90.     14.025      6.526
        90.     14.155      6.565
        90.     14.253      6.762
        90.     14.357      6.264
        90.     14.463      6.389
        90.     14.554      6.317
        90.     14.658      6.124
        90.     14.759      6.090
       125.     11.028      3.729
       125.     11.077      3.631
       125.     11.127      3.941
       125.     11.175      4.139
       125.     11.223      4.005
       125.     11.252      4.166
       125.     11.283      4.265
       125.     11.300      3.895
       125.     11.322      4.031
       125.     11.353      4.020
       125.     11.375      4.156
       125.     11.411      4.021
       125.     11.421      3.774
       125.     11.449      4.244
       125.     11.454      3.799
       125.     11.488      3.862
       125.     11.497      4.492
       125.     11.505      4.047
       125.     11.531      3.925
       125.     11.553      4.332
       125.     11.572      4.506
       125.     11.593      4.383
       125.     11.610      4.247
       125.     11.629      4.420
       125.     11.644      4.729
       125.     11.672      5.249
       125.     11.689      5.533
       125.     11.713      5.583
       125.     11.727      5.756      0.395
       125.     11.751      5.695
       125.     11.766      5.436
       125.     11.785      5.300
       125.     11.812      5.091
       125.     11.829      4.993
       125.     11.848      4.820
       125.     11.870      4.746
       125.     11.889      4.537
       125.     11.911      4.278
       125.     11.935      4.328
       125.     11.954      4.267
       125.     11.976      4.230
       125.     11.993      4.132
       125.     12.022      4.169
       125.     12.029      3.997
       125.     12.051      4.133
       125.     12.077      4.084
       125.     12.094      3.998
       125.     12.109      3.912
       125.     12.130      3.900
       125.     12.150      3.900
       125.     12.164      3.839
       125.     12.186      3.691
       125.     12.203      3.605
       125.     12.220      3.198
       125.     12.232      3.556
       125.     12.248      3.754
       125.     12.261      3.323
       125.     12.285      3.126
       125.     12.292      3.434
       125.     12.304      3.200
       125.     12.323      3.139
       125.     12.343      3.003      0.420
       125.     12.359      3.374
       125.     12.388      3.239
       125.     12.398      3.054
       125.     12.427      3.055
       125.     12.441      3.487
       125.     12.484      4.303
       125.     12.498      4.735
       125.     12.526      4.908
       125.     12.538      5.588
       125.     12.562      5.391
       125.     12.583      5.798
       125.     12.608      5.564
       125.     12.622      5.910
       125.     12.644      5.837
       125.     12.670      5.726
       125.     12.677      5.591
       125.     12.699      5.542
       125.     12.716      5.221
       125.     12.740      5.308
       125.     12.760      5.135
       125.     12.784      5.296
       125.     12.817      5.013
       125.     12.854      4.841
       125.     12.880      5.187
       125.     12.897      4.904
       125.     12.984      4.819      0.346
       125.     13.078      4.512
       125.     13.176      4.934
       125.     13.277      4.517
       125.     13.376      4.556
       125.     13.473      4.187
       125.     13.567      3.547
       125.     13.668      3.673
       125.     13.769      3.576
       125.     13.868      3.406
       125.     13.962      3.222
       125.     14.058      3.335
       125.     14.161      3.473
       125.     14.262      3.327
       125.     14.366      2.934
       125.     14.460      3.159
       125.     14.559      2.963
       125.     14.659      3.249
       125.     14.758      3.239
       141.     11.022      4.072
       141.     11.065      3.621
       141.     11.114      4.015
       141.     11.164      3.820
       141.     11.206      3.919
       141.     11.236      3.939
       141.     11.271      4.038
       141.     11.286      3.999
       141.     11.305      4.118
       141.     11.343      4.059
       141.     11.366      4.021
       141.     11.389      4.178
       141.     11.404      4.316
       141.     11.443      4.081
       141.     11.462      4.062
       141.     11.500      4.004
       141.     11.515      4.142
       141.     11.546      3.965
       141.     11.569      4.045
       141.     11.582      4.887
       141.     11.606      4.851
       141.     11.625      5.161
       141.     11.640      5.062
       141.     11.671      5.447
       141.     11.687      5.670      0.322
       141.     11.716      5.609
       141.     11.726      5.497
       141.     11.745      5.114
       141.     11.755      4.792
       141.     11.787      4.508
       141.     11.811      4.397
       141.     11.826      4.224
       141.     11.850      4.051
       141.     11.862      3.939
       141.     11.881      3.828
       141.     11.908      3.730
       141.     11.929      3.805
       141.     11.949      3.706
       141.     11.970      3.818
       141.     11.994      3.695
       141.     12.016      3.955
       141.     12.038      3.906
       141.     12.059      3.845
       141.     12.088      3.919
       141.     12.107      3.771
       141.     12.139      3.673
       141.     12.153      3.586
       141.     12.165      3.488
       141.     12.194      3.476
       141.     12.218      3.390
       141.     12.243      3.303
       141.     12.262      3.366
       141.     12.283      3.391
       141.     12.308      3.131
       141.     12.322      2.921
       141.     12.346      3.070
       141.     12.361      3.145
       141.     12.389      3.121
       141.     12.399      3.257
       141.     12.421      3.282
       141.     12.439      3.877
       141.     12.484      5.005
       141.     12.503      5.885
       141.     12.524      6.146
       141.     12.541      6.245
       141.     12.560      6.431
       141.     12.586      6.494      0.372
       141.     12.604      6.222
       141.     12.625      6.061
       141.     12.645      5.938
       141.     12.664      5.653
       141.     12.681      5.332
       141.     12.701      5.183
       141.     12.725      5.010
       141.     12.737      4.775
       141.     12.756      4.912
       141.     12.780      4.603
       141.     12.824      4.728
       141.     12.862      4.951
       141.     12.879      4.816
       141.     12.905      4.742
       141.     12.942      4.718
       141.     12.973      4.434
       141.     13.084      4.052
       141.     13.101      4.312
       141.     13.178      4.066
       141.     13.279      3.932
       141.     13.373      3.686
       141.     13.472      3.057
       141.     13.568      3.071
       141.     13.665      3.048
       141.     13.771      2.964
       141.     13.869      2.644
       141.     13.973      2.745
       141.     14.074      2.723
       141.     14.170      2.774
       141.     14.264      2.652
       141.     14.363      2.543
       141.     14.461      2.619
       141.     14.567      2.609
       141.     14.663      2.822
       141.     14.771      2.911
       160.     11.021      4.257
       160.     11.055      4.218
       160.     11.109      4.297
       160.     11.151      4.240      0.449
       160.     11.200      4.241
       160.     11.235      4.320
       160.     11.254      4.652
       160.     11.273      3.988
       160.     11.315      4.673
       160.     11.334      4.146
       160.     11.361      4.342
       160.     11.388      4.303
       160.     11.407      4.440
       160.     11.441      4.304
       160.     11.456      4.460
       160.     11.491      4.461
       160.     11.502      4.637
       160.     11.533      4.482
       160.     11.559      4.756
       160.     11.578      4.990
       160.     11.605      4.971
       160.     11.620      5.108
       160.     11.647      5.011
       160.     11.658      5.128      0.488
       160.     11.677      5.129
       160.     11.701      4.778
       160.     11.720      4.486
       160.     11.736      4.037
       160.     11.759      3.472
       160.     11.778      3.706
       160.     11.797      3.492
       160.     11.820      3.297
       160.     11.851      3.220
       160.     11.882      3.084
       160.     11.912      3.201
       160.     11.950      3.339
       160.     11.981      3.418
       160.     12.015      3.477
       160.     12.042      3.614
       160.     12.069      3.537
       160.     12.092      3.439
       160.     12.107      3.323
       160.     12.130      3.440
       160.     12.145      3.304
       160.     12.164      3.226
       160.     12.191      3.168
       160.     12.214      3.149
       160.     12.245      3.111
       160.     12.279      3.072
       160.     12.298      2.800
       160.     12.318      2.605
       160.     12.333      3.035
       160.     12.363      3.152
       160.     12.382      3.075
       160.     12.398      3.173
       160.     12.413      3.427
       160.     12.432      3.622
       160.     12.477      4.502
       160.     12.495      5.810
       160.     12.514      6.142
       160.     12.537      6.143
       160.     12.540      6.572      0.449
       160.     12.563      6.514
       160.     12.575      6.124
       160.     12.579      5.870
       160.     12.594      5.519
       160.     12.610      5.012
       160.     12.633      4.778
       160.     12.633      4.778
       160.     12.656      4.525
       160.     12.676      4.310
       160.     12.722      4.331
       160.     12.737      4.136
       160.     12.775      3.766
       160.     12.814      4.001
       160.     12.855      4.529
       160.     12.894      3.944
       160.     12.936      3.906
       160.     12.974      3.868
       160.     13.078      3.284
       160.     13.162      3.227
       160.     13.235      2.917
       160.     13.319      2.645
       160.     13.392      2.412
       160.     13.472      2.063
       160.     13.553      2.338
       160.     13.625      2.320
       160.     13.790      2.089
       160.     13.862      1.934
       160.     13.947      1.975
       160.     14.065      1.978
       160.     14.168      1.980
       160.     14.272      1.728
       160.     14.359      1.808
       160.     14.463      1.947
       160.     14.562      2.085
       160.     14.665      2.283
       160.     14.764      2.226
ENDDATA            407
ENDSUBENT          422
SUBENT        O1928004   20120216   20120702   20120622       O047
BIB                  6          6
REACTION   (70-YB-174(P,INL)70-YB-174,PAR,DA)
FACILITY   (VDGT,2FR SAC) the HVEC EN Tandem Van de Graaff
EN-SEC     (E-LVL,70-YB-174)
LEVEL-PROP (70-YB-174,E-LVL=0.253,SPIN=4.,PARITY=+1.)
STATUS     (CURVE).By CAJAD-fig.4 of J,NP/A,178,640,1972
ERR-ANALYS (DATA-ERR).The uncertainty is reported on figure.
ENDBIB               6
COMMON               1          3
E-LVL
MEV
0.253
ENDCOMMON            3
DATA                 4        362
ANG        EN         DATA       DATA-ERR
ADEG       MEV        MB/SR      MB/SR
        90.     11.076      0.071
        90.     11.129      0.079
        90.     11.181      0.070
        90.     11.227      0.074
        90.     11.282      0.077
        90.     11.331      0.078      0.052
        90.     11.383      0.066
        90.     11.432      0.075
        90.     11.485      0.081
        90.     11.531      0.083
        90.     11.612      0.084
        90.     11.638      0.095
        90.     11.655      0.184
        90.     11.678      0.173
        90.     11.698      0.183
        90.     11.712      0.271
        90.     11.734      0.230
        90.     11.758      0.306
        90.     11.777      0.316
        90.     11.800      0.309
        90.     11.820      0.336
        90.     11.839      0.274
        90.     11.852      0.294
        90.     11.881      0.228
        90.     11.885      0.262
        90.     11.924      0.262
        90.     11.940      0.255
        90.     11.960      0.270
        90.     11.980      0.302
        90.     11.999      0.321
        90.     12.023      0.349      0.060
        90.     12.045      0.339
        90.     12.061      0.292
        90.     12.074      0.252
        90.     12.104      0.288
        90.     12.116      0.238
        90.     12.139      0.251
        90.     12.155      0.206
        90.     12.178      0.181
        90.     12.194      0.171
        90.     12.214      0.159
        90.     12.237      0.177
        90.     12.257      0.226
        90.     12.306      0.209
        90.     12.335      0.212
        90.     12.395      0.305
        90.     12.450      0.350
        90.     12.498      0.595
        90.     12.546      0.516
        90.     12.573      0.546
        90.     12.597      0.647      0.087
        90.     12.619      0.560
        90.     12.642      0.627
        90.     12.671      0.509
        90.     12.697      0.544
        90.     12.726      0.479
        90.     12.745      0.374
        90.     12.770      0.304
        90.     12.793      0.316
        90.     12.812      0.210
        90.     12.844      0.211
        90.     12.874      0.211
        90.     12.883      0.167
        90.     12.919      0.172
        90.     12.945      0.125
        90.     12.997      0.087
        90.     13.046      0.086
        90.     13.092      0.125
        90.     13.125      0.125
        90.     13.157      0.130
        90.     13.203      0.121
        90.     13.249      0.113
        90.     13.284      0.091
        90.     13.363      0.109
        90.     13.435      0.136
        90.     13.523      0.158
        90.     13.605      0.110
        90.     13.683      0.124
        90.     13.762      0.186
        90.     13.846      0.128
        90.     13.925      0.209
        90.     14.089      0.202
       125.     10.985      0.047
       125.     11.008      0.039
       125.     11.060      0.039
       125.     11.106      0.045
       125.     11.155      0.040
       125.     11.181      0.042
       125.     11.230      0.044
       125.     11.289      0.043      0.029
       125.     11.335      0.043
       125.     11.387      0.047
       125.     11.439      0.051
       125.     11.485      0.051
       125.     11.517      0.056
       125.     11.540      0.040
       125.     11.560      0.053
       125.     11.579      0.067
       125.     11.598      0.087
       125.     11.620      0.119
       125.     11.631      0.170
       125.     11.659      0.220
       125.     11.671      0.268
       125.     11.687      0.301      0.015
       125.     11.710      0.300
       125.     11.732      0.312
       125.     11.752      0.292
       125.     11.775      0.293
       125.     11.795      0.273
       125.     11.815      0.257
       125.     11.834      0.284
       125.     11.851      0.267
       125.     11.873      0.286
       125.     11.893      0.281
       125.     11.914      0.345
       125.     11.931      0.320
       125.     11.960      0.345
       125.     11.979      0.356
       125.     11.993      0.319
       125.     12.010      0.290
       125.     12.031      0.248
       125.     12.051      0.223
       125.     12.075      0.203
       125.     12.095      0.177
       125.     12.118      0.160
       125.     12.142      0.145
       125.     12.174      0.150
       125.     12.236      0.159
       125.     12.258      0.178
       125.     12.284      0.183
       125.     12.307      0.183
       125.     12.330      0.202
       125.     12.358      0.220
       125.     12.387      0.263
       125.     12.408      0.302
       125.     12.430      0.359      0.020
       125.     12.453      0.337
       125.     12.476      0.351
       125.     12.506      0.326
       125.     12.536      0.301
       125.     12.562      0.306
       125.     12.577      0.247
       125.     12.607      0.209
       125.     12.631      0.154
       125.     12.661      0.144
       125.     12.683      0.162
       125.     12.710      0.144
       125.     12.731      0.094
       125.     12.760      0.102
       125.     12.787      0.091
       125.     12.810      0.076
       125.     12.836      0.069
       125.     12.855      0.101
       125.     12.911      0.085
       125.     12.960      0.087
       125.     13.008      0.104
       125.     13.057      0.105
       125.     13.100      0.086
       125.     13.136      0.097
       125.     13.237      0.118
       125.     13.337      0.155
       125.     13.434      0.168
       125.     13.540      0.144
       125.     13.641      0.144
       125.     13.735      0.153
       125.     13.834      0.132
       125.     13.941      0.145
       125.     14.040      0.124
       125.     14.138      0.113
       125.     14.242      0.135
       125.     14.340      0.129
       125.     14.442      0.120
       125.     14.644      0.147
       125.     14.742      0.122
       141.     11.008      0.043
       141.     11.063      0.044
       141.     11.119      0.039
       141.     11.168      0.045
       141.     11.213      0.044
       141.     11.246      0.044
       141.     11.295      0.045
       141.     11.344      0.044
       141.     11.387      0.044      0.030
       141.     11.439      0.044
       141.     11.488      0.044
       141.     11.534      0.054
       141.     11.560      0.054
       141.     11.586      0.056
       141.     11.599      0.079
       141.     11.628      0.096
       141.     11.644      0.136
       141.     11.664      0.178
       141.     11.690      0.251
       141.     11.706      0.333
       141.     11.728      0.403
       141.     11.754      0.450      0.028
       141.     11.771      0.433
       141.     11.790      0.410
       141.     11.804      0.388
       141.     11.830      0.355
       141.     11.846      0.332
       141.     11.859      0.291
       141.     11.886      0.295
       141.     11.902      0.253
       141.     11.925      0.243
       141.     11.944      0.270
       141.     11.964      0.250
       141.     11.984      0.272
       141.     12.006      0.278
       141.     12.039      0.282      0.025
       141.     12.062      0.282
       141.     12.075      0.250
       141.     12.101      0.245
       141.     12.124      0.255
       141.     12.144      0.245
       141.     12.163      0.235
       141.     12.183      0.247
       141.     12.202      0.238
       141.     12.225      0.247
       141.     12.281      0.273
       141.     12.317      0.297
       141.     12.343      0.304
       141.     12.362      0.329
       141.     12.401      0.344
       141.     12.424      0.394
       141.     12.440      0.441
       141.     12.469      0.533
       141.     12.472      0.630
       141.     12.511      0.655      0.032
       141.     12.528      0.660
       141.     12.544      0.610
       141.     12.574      0.511
       141.     12.590      0.529
       141.     12.623      0.539
       141.     12.636      0.402
       141.     12.663      0.326
       141.     12.686      0.235
       141.     12.709      0.205
       141.     12.745      0.212
       141.     12.764      0.177
       141.     12.791      0.148
       141.     12.804      0.108
       141.     12.836      0.130
       141.     12.863      0.107
       141.     12.892      0.113
       141.     12.912      0.088
       141.     12.980      0.098
       141.     13.081      0.095
       141.     13.179      0.084
       141.     13.284      0.100
       141.     13.385      0.149
       141.     13.480      0.147
       141.     13.587      0.149
       141.     13.685      0.127
       141.     13.790      0.131
       141.     13.888      0.116
       141.     13.986      0.131
       141.     14.087      0.116
       141.     14.192      0.104
       141.     14.293      0.103
       141.     14.394      0.071
       141.     14.489      0.088
       141.     14.590      0.090
       141.     14.695      0.108
       141.     14.796      0.088
       160.     10.995      0.093
       160.     11.047      0.088
       160.     11.096      0.073
       160.     11.148      0.088
       160.     11.194      0.078
       160.     11.224      0.082
       160.     11.273      0.080
       160.     11.294      0.063      0.026
       160.     11.325      0.082
       160.     11.377      0.080
       160.     11.429      0.092
       160.     11.475      0.092
       160.     11.524      0.090
       160.     11.557      0.093
       160.     11.573      0.120
       160.     11.589      0.154
       160.     11.619      0.144
       160.     11.626      0.218      0.020
       160.     11.654      0.292
       160.     11.670      0.390
       160.     11.693      0.477
       160.     11.709      0.595
       160.     11.722      0.626      0.020
       160.     11.758      0.550
       160.     11.771      0.534
       160.     11.791      0.465
       160.     11.811      0.406
       160.     11.837      0.367
       160.     11.853      0.310
       160.     11.870      0.280
       160.     11.880      0.244
       160.     11.916      0.243
       160.     11.932      0.212
       160.     11.955      0.218
       160.     11.966      0.209      0.018
       160.     11.994      0.215
       160.     12.004      0.249
       160.     12.036      0.256
       160.     12.053      0.295
       160.     12.082      0.313
       160.     12.095      0.353
       160.     12.114      0.351
       160.     12.134      0.354
       160.     12.154      0.371
       160.     12.173      0.377
       160.     12.193      0.390
       160.     12.212      0.397
       160.     12.235      0.400
       160.     12.255      0.415
       160.     12.271      0.467
       160.     12.307      0.495
       160.     12.336      0.495
       160.     12.352      0.530
       160.     12.381      0.613
       160.     12.411      0.684
       160.     12.430      0.816
       160.     12.459      0.918
       160.     12.482      1.031      0.033
       160.     12.508      1.019
       160.     12.540      0.962
       160.     12.557      0.787
       160.     12.586      0.849
       160.     12.606      0.734
       160.     12.630      0.597
       160.     12.653      0.433
       160.     12.683      0.376
       160.     12.706      0.309
       160.     12.729      0.248
       160.     12.758      0.253
       160.     12.781      0.270
       160.     12.807      0.252
       160.     12.827      0.175
       160.     12.853      0.170
       160.     12.883      0.134
       160.     12.902      0.112
       160.     12.951      0.103
       160.     13.000      0.104
       160.     13.056      0.104
       160.     13.108      0.095
       160.     13.150      0.103
       160.     13.206      0.113
       160.     13.323      0.123
       160.     13.389      0.142
       160.     13.470      0.136
       160.     13.552      0.162
       160.     13.630      0.159
       160.     13.797      0.123
       160.     13.879      0.156
       160.     13.964      0.141
       160.     14.075      0.112
       160.     14.179      0.115
       160.     14.274      0.123
       160.     14.372      0.091
       160.     14.480      0.078
       160.     14.578      0.063
       160.     14.679      0.078
       160.     14.777      0.057
ENDDATA            364
ENDSUBENT          379
SUBENT        O1928005   20120216   20120702   20120622       O047
BIB                  6          6
REACTION   (70-YB-174(P,INL)70-YB-174,PAR,DA)
FACILITY   (VDGT,2FR SAC) the HVEC EN Tandem Van de Graaff
EN-SEC     (E-LVL,70-YB-174)
LEVEL-PROP (70-YB-174,E-LVL=0.526,SPIN=6.,PARITY=+1.)
STATUS     (CURVE).By CAJAD-fig.5 of J,NP/A,178,640,1972
ERR-ANALYS  The statistical errors are within the point dimensions
ENDBIB               6
COMMON               1          3
E-LVL
MEV
0.526
ENDCOMMON            3
DATA                 3        275
ANG        EN         DATA
ADEG       MEV        MU-B/SR
       125.     11.032      0.001
       125.     11.081      0.002
       125.     11.140      0.001
       125.     11.184      0.002
       125.     11.217      0.001
       125.     11.266      0.002
       125.     11.308      0.001
       125.     11.362      0.002
       125.     11.400      0.001
       125.     11.421      0.002
       125.     11.470      0.003
       125.     11.519      0.003
       125.     11.566      3.801
       125.     11.580      1.462
       125.     11.606      8.480
       125.     11.632      6.725
       125.     11.639     16.959
       125.     11.662     19.591
       125.     11.686     19.298
       125.     11.697     32.456
       125.     11.719     31.579
       125.     11.740     26.901
       125.     11.756     30.117
       125.     11.780     27.193
       125.     11.796     20.175
       125.     11.824     12.281
       125.     11.848     13.158
       125.     11.866      7.602
       125.     11.880      9.357
       125.     11.908      5.556
       125.     11.920     12.865
       125.     11.937     16.082
       125.     11.960     13.158
       125.     11.979     15.789
       125.     11.995     17.836
       125.     12.012     22.222
       125.     12.030     20.175
       125.     12.054     25.731
       125.     12.075     32.456
       125.     12.103     32.164
       125.     12.105     21.053
       125.     12.138     20.468
       125.     12.166     12.865
       125.     12.185     11.988
       125.     12.211     12.573
       125.     12.239      4.386
       125.     12.265     11.696
       125.     12.312     12.281
       125.     12.328      3.801
       125.     12.349      7.602
       125.     12.387     11.696
       125.     12.412      6.140
       125.     12.438      5.263
       125.     12.459     13.450
       125.     12.483      6.140
       125.     12.516      7.602
       125.     12.534     14.327
       125.     12.555     18.421
       125.     12.614     25.146
       125.     12.637     21.637
       125.     12.659     37.135
       125.     12.659     32.456
       125.     12.684     45.614
       125.     12.710     29.825
       125.     12.720     38.012
       125.     12.736     42.690
       125.     12.762     33.626
       125.     12.788     40.058
       125.     12.799     36.842
       125.     12.811     46.199
       125.     12.855     37.719
       125.     12.858     54.971
       125.     12.891     38.889
       125.     12.959     50.585
       125.     12.987     46.199
       125.     13.055     63.743
       125.     13.085     50.292
       125.     13.132     61.111
       125.     13.163     66.959
       125.     13.191     69.883
       125.     13.259     54.094
       125.     13.261     87.135
       125.     13.357    127.193
       125.     13.465    115.497
       125.     13.559     60.234
       125.     13.662     79.240
       125.     13.763     54.386
       125.     13.868     50.877
       125.     13.964     37.719
       125.     14.063     26.316
       125.     14.175     27.778
       125.     14.271     16.959
       125.     14.377     21.053
       125.     14.475     22.222
       125.     14.677     33.626
       125.     14.780     28.947
       141.     11.001      0.001
       141.     11.032      0.001
       141.     11.088      0.002
       141.     11.149      0.002
       141.     11.196      0.002
       141.     11.231      0.001
       141.     11.276      0.001
       141.     11.327      0.002
       141.     11.376      0.002
       141.     11.433      0.002
       141.     11.472      0.002
       141.     11.526      0.002
       141.     11.569      0.004
       141.     11.604      7.470
       141.     11.630      0.002
       141.     11.646     16.434
       141.     11.679     11.952
       141.     11.688     23.904
       141.     11.712     27.490
       141.     11.735     32.570
       141.     11.754     28.685
       141.     11.770     30.777
       141.     11.798     27.789
       141.     11.824     31.076
       141.     11.831     25.398
       141.     11.852     27.490
       141.     11.866     23.606
       141.     11.887     25.398
       141.     11.908      9.263
       141.     11.934     15.538
       141.     11.953     20.618
       141.     11.979     21.514
       141.     11.988     17.032
       141.     12.000     21.514
       141.     12.028     20.916
       141.     12.051     25.100
       141.     12.066     29.582
       141.     12.096     30.777
       141.     12.108     33.765
       141.     12.110     24.801
       141.     12.119     28.984
       141.     12.145     28.984
       141.     12.185     16.135
       141.     12.204     11.952
       141.     12.220      7.769
       141.     12.253      2.689
       141.     12.265      6.873
       141.     12.295     10.159
       141.     12.326      5.677
       141.     12.352      8.068
       141.     12.368      3.586
       141.     12.394      2.390
       141.     12.424      5.677
       141.     12.445      3.884
       141.     12.476      5.976
       141.     12.497     11.056
       141.     12.525      2.988
       141.     12.537      4.781
       141.     12.546      6.574
       141.     12.567     21.813
       141.     12.595     32.869
       141.     12.647     37.649
       141.     12.663     43.327
       141.     12.731     54.084
       141.     12.750     60.060
       141.     12.778     58.267
       141.     12.804     85.159
       141.     12.806     66.036
       141.     12.825     84.562
       141.     12.865     78.884
       141.     12.900     78.287
       141.     12.942     63.645
       141.     12.961     66.633
       141.     13.006     75.299
       141.     13.055     66.633
       141.     13.062     73.506
       141.     13.104     83.665
       141.     13.158     89.641
       141.     13.160    107.570
       141.     13.256    134.163
       141.     13.364    109.064
       141.     13.465    100.697
       141.     13.563     72.908
       141.     13.671     71.414
       141.     13.770     60.359
       141.     13.875     33.167
       141.     13.976     31.076
       141.     14.074     26.892
       141.     14.178     16.135
       141.     14.283     30.478
       141.     14.377     29.880
       141.     14.482     33.167
       141.     14.588     49.004
       141.     14.679     37.052
       141.     14.789     42.729
       160.     11.058      6.909
       160.     11.112      6.909
       160.     11.583     12.373
       160.     11.608      3.265
       160.     11.640     14.650
       160.     11.669     16.017
       160.     11.690     16.472
       160.     11.712     28.768
       160.     11.733     33.322
       160.     11.751     36.965
       160.     11.772     38.786
       160.     11.790     33.777
       160.     11.811     25.580
       160.     11.833     35.599
       160.     11.851     25.580
       160.     11.869     26.946
       160.     11.886     21.937
       160.     11.908     12.829
       160.     11.940     12.829
       160.     11.968     16.472
       160.     11.981     21.627
       160.     12.000     26.115
       160.     12.023     28.209
       160.     12.047     32.398
       160.     12.066     31.201
       160.     12.082     32.697
       160.     12.098     21.627
       160.     12.124     21.627
       160.     12.148     18.934
       160.     12.171     15.343
       160.     12.187      8.461
       160.     12.204     17.737
       160.     12.237     15.044
       160.     12.251      5.769
       160.     12.328      3.973
       160.     12.361      7.265
       160.     12.380      5.469
       160.     12.405      0.383
       160.     12.457      3.973
       160.     12.483      3.973
       160.     12.506      8.162
       160.     12.532     14.745
       160.     12.565     25.816
       160.     12.586     11.454
       160.     12.609     17.737
       160.     12.656     46.162
       160.     12.663     57.532
       160.     12.687     47.658
       160.     12.703     64.713
       160.     12.729     70.697
       160.     12.741     73.390
       160.     12.755     75.784
       160.     12.780     88.949
       160.     12.804     91.642
       160.     12.839     91.941
       160.     12.853     88.949
       160.     12.870    110.791
       160.     12.877    105.106
       160.     12.909    106.303
       160.     12.954     76.981
       160.     12.966     82.366
       160.     13.008     73.390
       160.     13.062     80.870
       160.     13.071     74.587
       160.     13.111    120.067
       160.     13.163    121.264
       160.     13.164    134.728
       160.     13.266    185.295
       160.     13.366    212.223
       160.     13.465    138.019
       160.     13.556     75.185
       160.     13.636     61.122
       160.     13.798     55.138
       160.     13.882     49.154
       160.     13.960     29.705
       160.     14.044     24.320
       160.     14.081     12.650
       160.     14.180     15.343
       160.     14.283     22.225
       160.     14.381     27.611
       160.     14.482     38.682
       160.     14.585     52.445
       160.     14.684     59.028
       160.     14.792     46.760
ENDDATA            277
ENDSUBENT          292
SUBENT        O1928006   20120216   20120702   20120622       O047
BIB                  4          4
REACTION   (70-YB-176(P,EL)70-YB-176,,DA)
FACILITY   (VDGT,2GERMPH)
STATUS     (CURVE).By CAJAD-fig.6 of J,NP/A,178,640,1972
ERR-ANALYS  The statistical errors are within the point dimensions
ENDBIB               4
COMMON               1          3
ANG
ADEG
141.
ENDCOMMON            3
DATA                 2        153
EN         DATA
MEV        MB/SR
     11.038     39.020
     11.098     37.797
     11.196     35.348
     11.300     34.384
     11.319     34.127
     11.331     34.450
     11.360     33.935
     11.378     35.615
     11.401     32.646
     11.419     33.938
     11.432     33.228
     11.457     33.488
     11.479     32.068
     11.498     31.165
     11.511     30.197
     11.527     30.004
     11.558     31.104
     11.574     29.684
     11.590     27.683
     11.621     28.395
     11.634     28.783
     11.653     26.653
     11.675     27.752
     11.691     25.751
     11.710     24.525
     11.729     24.590
     11.748     24.527
     11.773     25.755
     11.773     24.980
     11.801     26.273
     11.807     26.854
     11.835     26.468
     11.848     25.952
     11.854     26.857
     11.870     27.051
     11.873     26.276
     11.905     26.213
     11.923     25.762
     11.930     25.182
     11.942     24.859
     11.952     25.441
     11.955     26.022
     11.971     25.377
     11.990     24.797
     11.996     23.893
     12.008     25.185
     12.018     24.153
     12.024     23.314
     12.040     23.314
     12.056     23.057
     12.072     22.606
     12.090     22.607
     12.113     22.414
     12.128     22.931
     12.153     22.933
     12.175     23.063
     12.188     22.482
     12.216     22.677
     12.232     21.645
     12.273     22.035
     12.275     21.195
     12.298     21.971
     12.308     21.261
     12.336     22.038
     12.355     21.070
     12.377     22.556
     12.399     21.137
     12.418     21.654
     12.437     19.395
     12.481     20.108
     12.512     19.593
     12.537     20.240
     12.550     18.884
     12.572     19.919
     12.594     18.434
     12.613     18.112
     12.648     16.694
     12.651     17.856
     12.676     16.760
     12.698     15.598
     12.698     15.598
     12.711     14.501
     12.733     14.954
     12.736     14.115
     12.755     14.439
     12.777     14.827
     12.808     14.764
     12.833     15.282
     12.852     15.735
     12.874     14.961
     12.906     15.480
     12.943     16.256
     12.962     15.418
     12.972     14.902
     13.003     14.774
     13.022     15.227
     13.044     14.647
     13.072     14.971
     13.107     14.973
     13.120     14.522
     13.142     13.748
     13.160     14.395
     13.192     13.815
     13.236     13.946
     13.274     13.044
     13.302     12.335
     13.327     12.982
     13.371     12.855
     13.396     13.696
     13.418     12.858
     13.456     13.118
     13.488     12.861
     13.500     12.474
     13.519     11.829
     13.535     11.249
     13.563     11.315
     13.582     10.799
     13.654     11.901
     13.746     11.001
     13.818     11.199
     13.903     10.557
     13.978     10.690
     14.060     10.694
     14.145     10.117
     14.224     10.250
     14.305      9.867
     14.381      9.483
     14.463      9.939
     14.544      9.750
     14.629      9.173
     14.702      8.983
     14.783      8.987
     14.865      9.055
     14.941      8.607
     15.022      8.224
     15.101      8.292
     15.183      8.232
     15.255      7.848
     15.337      7.916
     15.416      7.533
     15.494      7.149
     15.582      7.025
     15.655      6.899
     15.727      6.709
     15.812      6.649
     15.890      6.330
     15.969      6.075
     16.057      6.144
     16.129      6.083
     16.208      6.023
     16.287      5.510
     16.368      5.514
     16.444      5.324
ENDDATA            155
ENDSUBENT          168
SUBENT        O1928007   20120216   20120702   20120622       O047
BIB                  6          8
REACTION   (70-YB-176(P,INL)70-YB-176,PAR,DA)
FACILITY   (VDGT,2GERMPH)
EN-SEC     (E-LVL,70-YB-176)
LEVEL-PROP (70-YB-176,E-LVL=0.082,SPIN=2.,PARITY=+1.)
           (70-YB-176,E-LVL=0.271,SPIN=4.,PARITY=+1.)
           (70-YB-176,E-LVL=0.564,SPIN=6.,PARITY=+1.)
STATUS     (CURVE).By CAJAD-fig.6 of J,NP/A,178,640,1972
ERR-ANALYS (DATA-ERR).The uncertainty is reported on figure.
ENDBIB               8
COMMON               1          3
ANG
ADEG
141.
ENDCOMMON            3
DATA                 4        383
E-LVL      EN         DATA       DATA-ERR
MEV        MEV        MB/SR      MB/SR
      0.082     11.096      3.667
      0.082     11.197      3.829
      0.082     11.297      3.894
      0.082     11.316      3.621
      0.082     11.341      3.895
      0.082     11.354      4.024
      0.082     11.367      3.734
      0.082     11.404      3.703
      0.082     11.414      3.590
      0.082     11.429      4.105
      0.082     11.461      3.928
      0.082     11.502      3.881
      0.082     11.511      3.768
      0.082     11.533      3.865
      0.082     11.549      3.769
      0.082     11.577      3.624
      0.082     11.593      3.817
      0.082     11.634      4.011
      0.082     11.656      4.075
      0.082     11.678      3.979
      0.082     11.693      4.205
      0.082     11.715      4.558
      0.082     11.722      4.414
      0.082     11.740      4.912
      0.082     11.741      4.671
      0.082     11.753      5.122
      0.082     11.765      4.832
      0.082     11.781      4.222
      0.082     11.800      4.447
      0.082     11.807      3.997
      0.082     11.832      3.933
      0.082     11.835      4.271
      0.082     11.848      3.692
      0.082     11.851      3.515
      0.082     11.879      3.291
      0.082     11.892      3.548
      0.082     11.917      3.404
      0.082     11.939      3.195
      0.082     11.948      3.404
      0.082     11.971      3.276
      0.082     11.972      3.051
      0.082     11.993      2.938
      0.082     11.999      3.196
      0.082     12.002      2.826
      0.082     12.040      2.826
      0.082     12.043      2.698
      0.082     12.056      3.019
      0.082     12.096      2.859
      0.082     12.109      3.068
      0.082     12.137      2.988
      0.082     12.156      3.214
      0.082     12.163      2.844
      0.082     12.184      3.214
      0.082     12.200      3.005
      0.082     12.228      3.231
      0.082     12.244      3.166
      0.082     12.247      2.861
      0.082     12.263      3.279
      0.082     12.282      3.135
      0.082     12.295      2.990
      0.082     12.317      2.830
      0.082     12.335      3.103
      0.082     12.357      2.927
      0.082     12.379      3.522
      0.082     12.398      2.911
      0.082     12.417      3.072
      0.082     12.436      2.815
      0.082     12.455      2.703
      0.082     12.486      2.800
      0.082     12.499      2.671
      0.082     12.515      2.880
      0.082     12.540      2.656
      0.082     12.552      2.817
      0.082     12.578      2.817
      0.082     12.596      2.672
      0.082     12.618      2.882
      0.082     12.640      2.721
      0.082     12.653      2.561
      0.082     12.681      3.172
      0.082     12.722      3.124
      0.082     12.738      3.526
      0.082     12.756      4.298
      0.082     12.781      4.684
      0.082     12.797      4.909
      0.082     12.825      4.701
      0.082     12.847      4.814
      0.082     12.863      5.087
      0.082     12.872      4.846
      0.082     12.897      4.895
      0.082     12.913      5.040
      0.082     12.941      5.040
      0.082     12.964      4.365
      0.082     12.979      4.622
      0.082     13.001      4.478
      0.082     13.017      4.108
      0.082     13.061      4.093
      0.082     13.083      3.932
      0.082     13.108      3.820
      0.082     13.143      3.435
      0.082     13.156      3.692
      0.082     13.190      3.484
      0.082     13.222      3.597
      0.082     13.250      3.324
      0.082     13.263      3.517
      0.082     13.288      3.421
      0.082     13.304      3.260
      0.082     13.323      3.051
      0.082     13.357      3.019
      0.082     13.382      3.036
      0.082     13.401      2.843
      0.082     13.426      3.052
      0.082     13.439      2.924
      0.082     13.467      2.860
      0.082     13.483      2.539
      0.082     13.499      2.764
      0.082     13.527      2.620
      0.082     13.543      2.781
      0.082     13.562      2.700
      0.082     13.587      2.910
      0.082     13.668      2.943
      0.082     13.747      2.735
      0.082     13.820      2.543
      0.082     13.905      2.464
      0.082     13.983      2.497
      0.082     14.068      2.305
      0.082     14.147      2.065
      0.082     14.225      2.226
      0.082     14.298      2.179
      0.082     14.383      1.955
      0.082     14.461      1.956
      0.082     14.540      2.005
      0.082     14.618      2.151
      0.082     14.703      2.329
      0.082     14.791      2.507
      0.082     14.867      2.395
      0.082     14.948      2.396
      0.082     15.024      2.252
      0.082     15.099      2.253
      0.082     15.184      2.303
      0.082     15.260      2.191
      0.082     15.345      2.208
      0.082     15.420      2.113
      0.082     15.492      2.049
      0.082     15.584      1.986
      0.082     15.659      2.003
      0.082     15.731      1.972
      0.082     15.816      1.989
      0.082     15.898      1.958
      0.082     15.989      1.895
      0.082     16.055      1.879
      0.082     16.128      1.864
      0.082     16.206      1.881
      0.082     16.285      1.754
      0.082     16.370      1.787
      0.082     16.452      1.772
      0.271     11.091      0.014
      0.271     11.286      0.022
      0.271     11.317      0.019
      0.271     11.352      0.014
      0.271     11.374      0.026
      0.271     11.393      0.016
      0.271     11.427      0.026
      0.271     11.446      0.016
      0.271     11.465      0.027
      0.271     11.500      0.031
      0.271     11.506      0.015
      0.271     11.550      0.018
      0.271     11.594      0.048
      0.271     11.619      0.061
      0.271     11.651      0.038
      0.271     11.676      0.025
      0.271     11.685      0.058
      0.271     11.726      0.075
      0.271     11.729      0.094
      0.271     11.744      0.157
      0.271     11.747      0.189
      0.271     11.763      0.199
      0.271     11.766      0.254
      0.271     11.787      0.282
      0.271     11.793      0.320
      0.271     11.809      0.334      0.024
      0.271     11.825      0.301
      0.271     11.838      0.290
      0.271     11.853      0.272
      0.271     11.876      0.256
      0.271     11.888      0.236
      0.271     11.907      0.199
      0.271     11.942      0.199
      0.271     11.961      0.185
      0.271     11.974      0.158
      0.271     11.992      0.170
      0.271     12.008      0.145
      0.271     12.027      0.131
      0.271     12.037      0.142
      0.271     12.046      0.121
      0.271     12.071      0.137
      0.271     12.087      0.115
      0.271     12.109      0.158
      0.271     12.131      0.142
      0.271     12.147      0.163
      0.271     12.172      0.170
      0.271     12.184      0.185
      0.271     12.206      0.198
      0.271     12.222      0.211
      0.271     12.244      0.174
      0.271     12.253      0.156
      0.271     12.288      0.184
      0.271     12.326      0.197
      0.271     12.335      0.220
      0.271     12.363      0.203
      0.271     12.401      0.164
      0.271     12.414      0.118
      0.271     12.446      0.099
      0.271     12.467      0.184
      0.271     12.483      0.220
      0.271     12.508      0.179
      0.271     12.514      0.244
      0.271     12.542      0.244
      0.271     12.555      0.269
      0.271     12.580      0.280
      0.271     12.602      0.299
      0.271     12.633      0.356
      0.271     12.673      0.443
      0.271     12.692      0.498      0.042
      0.271     12.727      0.403
      0.271     12.746      0.352
      0.271     12.758      0.365
      0.271     12.775      0.261
      0.271     12.803      0.333
      0.271     12.825      0.342
      0.271     12.844      0.269
      0.271     12.879      0.259
      0.271     12.897      0.251
      0.271     12.942      0.229
      0.271     12.961      0.139
      0.271     12.989      0.130
      0.271     13.008      0.129
      0.271     13.024      0.056
      0.271     13.040      0.095
      0.271     13.059      0.109
      0.271     13.078      0.095
      0.271     13.109      0.052
      0.271     13.116      0.023
      0.271     13.144      0.053
      0.271     13.168      0.140
      0.271     13.185      0.044
      0.271     13.210      0.108
      0.271     13.257      0.133      0.038
      0.271     13.267      0.024
      0.271     13.285      0.105
      0.271     13.310      0.112
      0.271     13.332      0.110
      0.271     13.339      0.094
      0.271     13.364      0.085
      0.271     13.386      0.073
      0.271     13.405      0.056
      0.271     13.433      0.105
      0.271     13.448      0.163
      0.271     13.474      0.132
      0.271     13.483      0.096
      0.271     13.511      0.119
      0.271     13.527      0.089
      0.271     13.549      0.093
      0.271     13.574      0.170
      0.271     13.650      0.141
      0.271     13.738      0.114
      0.271     13.895      0.109
      0.271     13.973      0.118
      0.271     14.058      0.118
      0.271     14.131      0.096
      0.271     14.206      0.075
      0.271     14.294      0.095
      0.271     14.370      0.092
      0.271     14.452      0.071
      0.271     14.527      0.062
      0.271     14.606      0.057
      0.271     14.684      0.079
      0.271     14.769      0.074
      0.271     14.860      0.054
      0.271     14.939      0.067
      0.271     15.018      0.055
      0.271     15.090      0.060
      0.271     15.165      0.055
      0.271     15.253      0.069
      0.271     15.319      0.080
      0.271     15.398      0.066
      0.271     15.483      0.058
      0.271     15.561      0.074
      0.271     15.646      0.060
      0.271     15.719      0.085
      0.271     15.800      0.087
      0.271     15.876      0.064
      0.271     15.964      0.066
      0.271     16.033      0.071
      0.271     16.112      0.059
      0.271     16.197      0.075
      0.271     16.269      0.064
      0.271     16.347      0.076
      0.271     16.429      0.072
      0.564     11.593      0.012
      0.564     11.687      0.012
      0.564     11.772      0.012
      0.564     11.794      0.019
      0.564     11.832      0.027
      0.564     11.857      0.016
      0.564     11.866      0.027      0.016
      0.564     11.886      0.007
      0.564     11.904      0.016
      0.564     11.942      0.007
      0.564     11.970      0.011
      0.564     11.992      0.008
      0.564     12.046      0.006
      0.564     12.074      0.014
      0.564     12.099      0.018
      0.564     12.109      0.012
      0.564     12.128      0.016
      0.564     12.168      0.024
      0.564     12.200      0.032
      0.564     12.225      0.028
      0.564     12.253      0.028
      0.564     12.285      0.019
      0.564     12.323      0.010
      0.564     12.445      0.010
      0.564     12.492      0.001
      0.564     12.530      0.005
      0.564     12.615      0.003
      0.564     12.643      0.024
      0.564     12.722      0.005
      0.564     12.791      0.029
      0.564     12.804      0.011
      0.564     12.828      0.029
      0.564     12.891      0.026
      0.564     12.907      0.039
      0.564     12.926      0.033
      0.564     12.963      0.047
      0.564     13.004      0.054
      0.564     13.055      0.043
      0.564     13.071      0.030
      0.564     13.090      0.007
      0.564     13.108      0.021
      0.564     13.127      0.040
      0.564     13.136      0.048
      0.564     13.171      0.029
      0.564     13.199      0.058
      0.564     13.228      0.048
      0.564     13.240      0.078
      0.564     13.268      0.064      0.013
      0.564     13.278      0.051
      0.564     13.302      0.100
      0.564     13.321      0.092
      0.564     13.350      0.056
      0.564     13.362      0.077
      0.564     13.403      0.083
      0.564     13.444      0.067
      0.564     13.485      0.073
      0.564     13.529      0.092
      0.564     13.551      0.118
      0.564     13.626      0.077
      0.564     13.702      0.050
      0.564     13.787      0.050
      0.564     13.866      0.065
      0.564     13.951      0.061
      0.564     14.026      0.054
      0.564     14.105      0.051
      0.564     14.187      0.034
      0.564     14.272      0.034
      0.564     14.350      0.026
      0.564     14.429      0.029
      0.564     14.501      0.031
      0.564     14.586      0.031
      0.564     14.674      0.042
      0.564     14.746      0.029
      0.564     14.828      0.030
      0.564     14.907      0.022
      0.564     14.992      0.020
      0.564     15.070      0.025
      0.564     15.143      0.029
      0.564     15.227      0.027
      0.564     15.303      0.023
      0.564     15.388      0.030
      0.564     15.460      0.026
      0.564     15.542      0.021
      0.564     15.617      0.025
ENDDATA            385
ENDSUBENT          402
SUBENT        O1928008   20120216   20120702   20120622       O047
BIB                  4          4
REACTION   (70-YB-170(P,EL)70-YB-170,,DA)
FACILITY   (VDGT,2FR SAC) the HVEC EN Tandem Van de Graaff
STATUS     (CURVE).By CAJAD-fig.9 of J,NP/A,178,640,1972
ERR-ANALYS  The statistical errors are within the point dimensions
ENDBIB               4
COMMON               1          3
ANG
ADEG
141.
ENDCOMMON            3
DATA                 2         75
EN         DATA
MEV        MB/SR
     10.177     49.598
     10.214     48.390
     10.234     48.385
     10.253     48.283
     10.274     48.026
     10.292     46.978
     10.313     47.591
     10.332     46.755
     10.351     46.422
     10.370     46.320
     10.378     45.545
     10.388     44.364
     10.401     44.148
     10.410     44.590
     10.418     44.298
     10.430     44.179
     10.436     42.729
     10.448     43.498
     10.459     43.012
     10.467     43.589
     10.479     42.002
     10.486     41.441
     10.495     40.897
     10.504     41.204
     10.515     41.259
     10.536     43.609
     10.549     43.857
     10.556     43.218
     10.569     42.982
     10.583     42.554
     10.603     42.201
     10.623     42.524
     10.644     40.799
     10.665     42.010
     10.684     41.020
     10.705     40.589
     10.726     39.773
     10.742     39.150
     10.805     38.245
     10.822     39.148
     10.843     38.543
     11.098     35.000
     11.119     34.098
     11.140     33.157
     11.157     33.215
     11.179     33.234
     11.197     33.061
     11.237     31.238
     11.257     30.931
     11.279     31.161
     11.299     31.603
     11.316     31.200
     11.340     30.720
     11.357     29.626
     11.381     29.395
     11.396     28.820
     11.419     28.628
     11.438     27.726
     11.459     27.380
     11.482     26.651
     11.495     26.171
     11.518     26.228
     11.545     26.958
     11.556     27.265
     11.597     27.668
     11.614     27.418
     11.635     27.322
     11.657     27.169
     11.683     26.958
     11.700     26.689
     11.715     26.344
     11.737     26.075
     11.759     24.789
     11.778     25.537
     11.797     24.501
ENDDATA             77
ENDSUBENT           90
SUBENT        O1928009   20120216   20120702   20120622       O047
BIB                  6          6
REACTION   (70-YB-176(P,INL)70-YB-176,PAR,DA)
FACILITY   (VDGT,2GERMPH)
EN-SEC     (E-LVL,70-YB-176)
LEVEL-PROP (70-YB-176,E-LVL=0.271,SPIN=4.,PARITY=+1.)
STATUS     (CURVE).By CAJAD-fig.13 of J,NP/A,178,640,1972
ERR-ANALYS  The statistical errors are within the point dimensions
ENDBIB               6
COMMON               2          3
ANG        E-LVL
ADEG       MEV
125.       0.271
ENDCOMMON            3
DATA                 2        107
EN         DATA
MEV        MB/SR
     11.078      0.017
     11.171      0.019
     11.273      0.031
     11.292      0.000
     11.313      0.013
     11.351      0.012
     11.370      0.033
     11.387      0.022
     11.404      0.040
     11.432      0.040
     11.451      0.028
     11.468      0.016
     11.493      0.011
     11.517      0.011
     11.533      0.004
     11.548      0.022
     11.578      0.014
     11.589      0.037
     11.614      0.032
     11.633      0.022
     11.646      0.049
     11.672      0.056
     11.693      0.074
     11.700      0.094
     11.723      0.096
     11.727      0.108
     11.741      0.139
     11.760      0.132
     11.773      0.157
     11.799      0.225
     11.813      0.215
     11.837      0.197
     11.862      0.197
     11.875      0.182
     11.881      0.152
     11.891      0.160
     11.909      0.188
     11.923      0.165
     11.924      0.181
     11.938      0.136
     11.946      0.158
     11.953      0.169
     11.974      0.153
     11.978      0.168
     11.995      0.180
     12.002      0.164
     12.012      0.149
     12.029      0.182
     12.051      0.227
     12.068      0.215
     12.089      0.236
     12.111      0.245
     12.128      0.269
     12.153      0.217
     12.170      0.233
     12.191      0.200
     12.210      0.180
     12.233      0.171
     12.241      0.127
     12.271      0.125
     12.283      0.061
     12.309      0.117
     12.325      0.058
     12.374      0.066
     12.399      0.065
     12.410      0.076
     12.440      0.078
     12.455      0.086
     12.469      0.075
     12.488      0.064
     12.508      0.076
     12.523      0.092
     12.548      0.115
     12.568      0.129
     12.595      0.120
     12.608      0.140
     12.630      0.182
     12.653      0.222
     12.669      0.330
     12.678      0.355
     12.694      0.304
     12.709      0.259
     12.731      0.323
     12.777      0.308
     12.846      0.196
     12.872      0.218
     12.888      0.126
     12.902      0.077
     12.921      0.055
     12.949      0.105
     12.952      0.146
     12.964      0.076
     12.987      0.045
     13.008      0.078
     13.027      0.057
     13.044      0.019
     13.065      0.058
     13.082      0.029
     13.105      0.045
     13.125      0.054
     13.171      0.057
     13.188      0.026
     13.205      0.030
     13.230      0.033
     13.241      0.069
     13.265      0.074
     13.290      0.024
ENDDATA            109
ENDSUBENT          124
SUBENT        O1928010   20120216   20120702   20120622       O047
BIB                  6          6
REACTION   (70-YB-172(P,INL)70-YB-172,PAR,DA)
FACILITY   (VDGT,2FR SAC) the HVEC EN Tandem Van de Graaff
EN-SEC     (E-LVL,70-YB-172)
LEVEL-PROP (70-YB-172,E-LVL=0.260,SPIN=4.,PARITY=+1.)
STATUS     (CURVE).By CAJAD-fig.13 of J,NP/A,178,640,1972
ERR-ANALYS  The statistical errors are within the point dimensions
ENDBIB               6
COMMON               2          3
ANG        E-LVL
ADEG       MEV
125.       0.260
ENDCOMMON            3
DATA                 2         49
EN         DATA
MEV        MB/SR
     11.457      0.030
     11.563      0.038
     11.607      0.050
     11.656      0.058
     11.680      0.081
     11.707      0.069
     11.727      0.120
     11.755      0.191
     11.779      0.201
     11.804      0.227
     11.822      0.290
     11.832      0.201
     11.863      0.199
     11.887      0.188
     11.904      0.173
     11.925      0.198
     11.955      0.189
     11.980      0.181
     11.999      0.205
     12.025      0.195
     12.048      0.227
     12.076      0.265
     12.108      0.267
     12.127      0.222
     12.150      0.205
     12.177      0.212
     12.194      0.179
     12.222      0.165
     12.253      0.172
     12.273      0.225
     12.294      0.243
     12.346      0.284
     12.369      0.270
     12.394      0.246
     12.422      0.259
     12.451      0.213
     12.463      0.172
     12.493      0.144
     12.518      0.120
     12.546      0.133
     12.573      0.087
     12.598      0.079
     12.615      0.068
     12.647      0.061
     12.695      0.043
     12.740      0.060
     12.795      0.043
     12.899      0.041
     12.943      0.019
ENDDATA             51
ENDSUBENT           66
SUBENT        O1928011   20120216   20120702   20120622       O047
BIB                  6          6
REACTION   (70-YB-170(P,INL)70-YB-170,PAR,DA)
FACILITY   (VDGT,2FR SAC) the HVEC EN Tandem Van de Graaff
EN-SEC     (E-LVL,70-YB-170)
LEVEL-PROP (70-YB-170,E-LVL=0.277,SPIN=4.,PARITY=+1.)
STATUS     (CURVE).By CAJAD-fig.13 of J,NP/A,178,640,1972
ERR-ANALYS  The statistical errors are within the point dimensions
ENDBIB               6
COMMON               2          3
ANG        E-LVL
ADEG       MEV
125.       0.277
ENDCOMMON            3
DATA                 2         67
EN         DATA
MEV        MB/SR
     11.299      0.011
     11.419      0.003
     11.443      0.021
     11.460      0.022
     11.485      0.028
     11.500      0.028
     11.526      0.037
     11.560      0.071
     11.583      0.064
     11.596      0.047
     11.617      0.049
     11.642      0.040
     11.662      0.054
     11.683      0.055
     11.702      0.057
     11.721      0.072
     11.745      0.077
     11.757      0.088
     11.780      0.065
     11.800      0.103
     11.817      0.091
     11.840      0.105
     11.857      0.095
     11.881      0.123
     11.891      0.087
     11.917      0.098
     11.936      0.084
     11.959      0.065
     11.973      0.050
     11.999      0.042
     12.016      0.079
     12.033      0.104
     12.052      0.104
     12.072      0.130
     12.114      0.159
     12.134      0.168
     12.161      0.159
     12.182      0.137
     12.218      0.116
     12.246      0.130
     12.271      0.085
     12.302      0.058
     12.334      0.047
     12.364      0.065
     12.391      0.069
     12.421      0.053
     12.446      0.065
     12.478      0.072
     12.506      0.062
     12.548      0.048
     12.586      0.071
     12.622      0.060
     12.665      0.065
     12.705      0.063
     12.743      0.069
     12.792      0.070
     12.831      0.085
     12.869      0.070
     12.917      0.072
     12.953      0.067
     12.985      0.080
     13.026      0.084
     13.068      0.064
     13.110      0.050
     13.153      0.065
     13.193      0.061
     13.231      0.054
ENDDATA             69
ENDSUBENT           84
SUBENT        O1928012   20120216   20120702   20120622       O047
BIB                  6          6
REACTION   (70-YB-176(P,INL)70-YB-176,PAR,DA)
FACILITY   (VDGT,2GERMPH)
EN-SEC     (E-LVL,70-YB-176)
LEVEL-PROP (70-YB-176,E-LVL=0.564,SPIN=6.,PARITY=+1.)
STATUS     (CURVE).By CAJAD-fig.14 of J,NP/A,178,640,1972
ERR-ANALYS  The statistical errors are within the point dimensions
ENDBIB               6
COMMON               2          3
ANG        E-LVL
ADEG       MEV
125.       0.564
ENDCOMMON            3
DATA                 2         31
EN         DATA
MEV        MB/SR
     11.238      0.001
     11.302      0.001
     11.388      0.001
     11.490      0.010
     11.583      0.010
     11.658      0.010
     11.687      0.020
     11.710      0.020
     11.727      0.024
     11.749      0.014
     11.764      0.026
     11.783      0.007
     11.804      0.014
     11.839      0.004
     11.864      0.008
     11.887      0.006
     11.947      0.005
     11.957      0.012
     11.978      0.013
     12.001      0.010
     12.022      0.014
     12.059      0.024
     12.097      0.029
     12.124      0.025
     12.151      0.025
     12.221      0.008
     12.338      0.007
     12.384      0.001
     12.433      0.001
     12.548      0.011
     12.621      0.001
ENDDATA             33
ENDSUBENT           48
SUBENT        O1928013   20120216   20120702   20120622       O047
BIB                  6          6
REACTION   (70-YB-172(P,INL)70-YB-172,PAR,DA)
FACILITY   (VDGT,2FR SAC) the HVEC EN Tandem Van de Graaff
EN-SEC     (E-LVL,70-YB-172)
LEVEL-PROP (70-YB-172,E-LVL=0.539,SPIN=6.,PARITY=+1.)
STATUS     (CURVE).By CAJAD-fig.14 of J,NP/A,178,640,1972
ERR-ANALYS  The statistical errors are within the point dimensions
ENDBIB               6
COMMON               2          3
ANG        E-LVL
ADEG       MEV
125.       0.539
ENDCOMMON            3
DATA                 2         34
EN         DATA
MEV        MB/SR
     11.300      0.001
     11.409      0.001
     11.508      0.001
     11.596      0.001
     11.635      0.011
     11.681      0.008
     11.716      0.013
     11.733      0.020
     11.760      0.024
     11.781      0.033
     11.808      0.026
     11.831      0.024
     11.862      0.023
     11.876      0.022
     11.901      0.017
     11.918      0.009
     12.055      0.009
     12.076      0.013
     12.099      0.015
     12.134      0.014
     12.155      0.016
     12.180      0.026
     12.194      0.022
     12.207      0.018
     12.228      0.012
     12.251      0.009
     12.307      0.007
     12.338      0.004
     12.381      0.016
     12.402      0.013
     12.438      0.010
     12.477      0.029
     12.500      0.026
     12.554      0.042
ENDDATA             36
ENDSUBENT           51
SUBENT        O1928014   20120216   20120702   20120622       O047
BIB                  6          6
REACTION   (70-YB-172(P,INL)70-YB-172,PAR,DA)
FACILITY   (VDGT,2FR SAC) the HVEC EN Tandem Van de Graaff
EN-SEC     (E-LVL,70-YB-172)
LEVEL-PROP (70-YB-172,E-LVL=0.539,SPIN=6.,PARITY=+1.)
STATUS     (CURVE).By CAJAD-fig.21 of J,NP/A,178,640,1972
ERR-ANALYS  The statistical errors are within the point dimensions
ENDBIB               6
COMMON               2          3
ANG        E-LVL
ADEG       MEV
141.       0.539
ENDCOMMON            3
DATA                 2         49
EN         DATA
MEV        MB/SR
     12.082      0.017
     12.128      0.022
     12.178      0.018
     12.220      0.026
     12.270      0.022
     12.331      0.017
     12.373      0.017
     12.415      0.010
     12.465      0.018
     12.507      0.037
     12.564      0.036
     12.610      0.044
     12.664      0.061
     12.752      0.043
     12.806      0.044
     12.859      0.046
     12.905      0.048
     12.955      0.043
     12.997      0.052
     13.096      0.074
     13.146      0.096
     13.196      0.087
     13.245      0.106
     13.249      0.106
     13.291      0.103
     13.345      0.094
     13.388      0.063
     13.438      0.055
     13.484      0.040
     13.534      0.030
     13.576      0.016
     13.634      0.015
     13.676      0.030
     13.722      0.030
     13.772      0.021
     13.817      0.042
     13.867      0.026
     13.917      0.025
     13.963      0.013
     14.063      0.020
     14.155      0.015
     14.201      0.021
     14.254      0.019
     14.296      0.026
     14.346      0.018
     14.442      0.018
     14.542      0.021
     14.637      0.020
     14.733      0.019
ENDDATA             51
ENDSUBENT           66
SUBENT        O1928015   20220119   20220607   20220504       O087
BIB                  6          6
REACTION   (70-YB-170(P,INL)70-YB-170,PAR,DA)
FACILITY   (VDGT,2FR SAC) the HVEC EN Tandem Van de Graaff
LEVEL-PROP (70-YB-170,E-LVL=0.573,SPIN=6.,PARITY=+1.)
STATUS     (CURVE) By CAJAD-fig.21 of Nucl.Phys.,A178(1972)640
ERR-ANALYS  The statistical errors are within the point dimensions
HISTORY    (20220119U) SD: EN-SEC deleted.
ENDBIB               6
COMMON               2          3
ANG        E-LVL
ADEG       MEV
141.       0.573
ENDCOMMON            3
DATA                 2         29
EN         DATA
MEV        MB/SR
     12.084      0.013
     12.168      0.014
     12.276      0.014
     12.367      0.018
     12.467      0.012
     12.555      0.017
     12.647      0.015
     12.743      0.026
     12.850      0.020
     12.938      0.025
     13.034      0.015
     13.130      0.021
     13.222      0.023
     13.325      0.025
     13.421      0.017
     13.524      0.018
     13.616      0.021
     13.720      0.016
     13.808      0.016
     13.911      0.017
     14.003      0.021
     14.099      0.021
     14.195      0.023
     14.294      0.024
     14.394      0.021
     14.490      0.018
     14.589      0.022
     14.685      0.027
     14.781      0.022
ENDDATA             31
ENDSUBENT           46
ENDENTRY            15
