ENTRY            21565   20160725   20170201   20170124       2252
SUBENT        21565001   20160725   20170201   20170124       2252
BIB                 12         21
INSTITUTE  (2FR SAC)
REFERENCE  (J,JPR,34,123,197303)
AUTHOR     (A.Lottin,A.Jain)
TITLE       Study of the gamma ray spectra emitted by the
            resonances of Au after neutron capture
FACILITY   (LINAC,2FR SAC) 500 Hz, 50 ns.
INC-SOURCE (PHOTO)
SAMPLE      Gold plate, 100 cm*cm area, 3.860 kg.
METHOD     (TOF) 13 m flight path, 300 hours measuring time.
DETECTOR   (GELI) 5 cm3, flat diode, 10 keV associated
            resolution at 6 MeV.
COMMENT     Gamma spectra stored as a function of neutron
            time-of-flight.
ERR-ANALYS .No details. Minimum error is of the order of
            magnitude of 0.1 in the resonance at 4.9 eV,
            0.5 in those at 46.5 eV, 163 eV, 209 eV, and
            0.25 in the others. (In number of photons per
            100 neutrons captured).
HISTORY    (19800602C) G.C.
           (20160725U) SD:Updated to new date formats,lower case.
           Ref. corrected (extra comma deleted).
ENDBIB              21
NOCOMMON             0          0
ENDSUBENT           24
SUBENT        21565002   20160725   20170201   20170124       2252
BIB                  2          2
REACTION   (79-AU-197(N,0),,J) Resonance spin.
STATUS     (TABLE) Tbl. 2 from JPR,34,123,1973.
ENDBIB               2
NOCOMMON             0          0
DATA                 2          6
EN-RES     DATA
EV         NO-DIM
       58.1         1.
       122.         2.
       144.         1.
       165.         2.
       274.         2.
       400.         2.
ENDDATA              8
ENDSUBENT           15
SUBENT        21565003   20160725   20170201   20170124       2252
BIB                  2          2
REACTION   (79-AU-197(N,G)79-AU-198,,SPC,,RES)
STATUS     (TABLE) Tbl. 1 from JPR,34,123,1973.
ENDBIB               2
NOCOMMON             0          0
DATA                 3        331
EN         E          DATA
KEV        KEV        PC/REAC
        4.9     6513.4       1.76
        4.9     6457.9       3.91
        4.9     6319.6       3.85
        4.9     6276.9       2.26
        4.9     6252.8       7.82
        4.9     6185.8       0.15
        4.9     6173.2       0.17
        4.9     6166.0       0.25
        4.9     6152.5       0.52
        4.9     6145.4       1.16
        4.9     6130.9       0.53
        4.9     6116.0       0.40
        4.9     6107.0       2.35
        4.9     6059.9       0.25
        4.9     6017.0       0.46
        4.9     5983.8       2.30
        4.9     5941.0       0.21
        4.9     5882.3       1.33
        4.9     5839.1       0.34
        4.9     5723.5       0.93
        4.9     5710.5       1.53
        4.9     5680.7       0.59
        4.9     5645.8       0.18
        4.9     5617.2       0.54
        4.9     5594.2       1.16
        4.9     5554.1       0.18
        4.9     5536.2       0.70
        4.9     5525.0       1.87
        4.9     5513.0       0.22
        4.9     5492.0       0.46
        4.9     5464.5       0.28
        4.9     5419.5       0.43
        4.9     5387.8       0.61
        4.9     5348.7       1.34
        4.9     5309.0       0.97
       46.5     6252.8       2.98
       46.5     6185.8       5.51
       46.5     6145.4       3.24
       46.5     6059.9       1.69
       46.5     5882.3       1.31
       46.5     5809.5       1.11
       46.5     5766.3       1.84
       46.5     5723.5       2.22
       46.5     5710.5       1.48
       46.5     5680.7       2.08
       46.5     5581.2       1.32
       46.5     5492.0       1.92
       58.1     6513.4       1.17
       58.1     6457.9       1.03
       58.1     6422.9       0.85
       58.1     6319.6       0.42
       58.1     6276.9       0.96
       58.1     6185.8       0.72
       58.1     6166.0       4.73
       58.1     6145.4       6.34
       58.1     6017.0       1.64
       58.1     5941.0       0.65
       58.1     5882.3       0.88
       58.1     5809.5       2.26
       58.1     5723.5       1.77
       58.1     5594.2       5.40
       58.1     5554.1       2.25
       58.1     5464.5       1.21
       58.1     5400.8       2.86
       58.1     5387.8       1.93
       60.2     6513.4       2.52
       60.2     6457.9       1.28
       60.2     6319.6       4.61
       60.2     6252.8       0.76
       60.2     6185.8       3.91
       60.2     6166.0       1.36
       60.2     6152.5       1.02
       60.2     6059.9       3.52
       60.2     5983.8       1.56
       60.2     5941.0       1.00
       60.2     5882.3       0.88
       60.2     5809.5       2.29
       60.2     5710.5       5.88
       60.2     5617.2       0.69
       60.2     5594.2       0.61
       60.2     5554.1       2.00
       60.2     5513.0       1.11
       60.2     5419.5       0.84
       78.4     6513.4       3.42
       78.4     6185.8       0.48
       78.4     6173.2       1.20
       78.4     6166.0       1.99
       78.4     6152.5       1.39
       78.4     6145.4       1.64
       78.4     6107.0       1.22
       78.4     6017.0       0.30
       78.4     5809.5       4.02
       78.4     5784.1       1.24
       78.4     5723.5       0.42
       78.4     5710.5       0.58
       78.4     5617.2       1.29
       78.4     5594.2       0.48
       78.4     5581.2       0.81
       78.4     5492.0       0.43
       78.4     5464.5       2.56
       78.4     5400.8       0.50
       107.     6513.4       1.88
       107.     6457.9       0.72
       107.     6276.9       1.35
       107.     6252.8       0.79
       107.     6166.0       2.76
       107.     6145.4       2.23
       107.     6116.0       0.61
       107.     6107.0       1.01
       107.     6059.9       2.05
       107.     6000.5       0.95
       107.     5983.8       0.89
       107.     5941.0       2.53
       107.     5882.3       0.70
       107.     5839.1       2.23
       107.     5809.5       4.42
       107.     5766.3       3.28
       107.     5723.5       2.14
       107.     5645.8       1.12
       107.     5594.2       1.84
       107.     5554.1       2.27
       107.     5525.0       0.97
       107.     5513.0       0.70
       107.     5464.5       1.47
       107.     5400.8       0.67
       107.     5387.8       1.11
       107.     5364.6       0.89
       107.     5340.1       1.72
       107.     5309.0       2.31
       122.     6264.8       1.39
       122.     6252.8       1.51
       122.     6185.8       0.51
       122.     6145.4       3.02
       122.     6059.9       0.74
       122.     6000.5       0.90
       122.     5882.3       0.65
       122.     5809.5       2.98
       122.     5645.8       0.89
       122.     5554.1       0.77
       122.     5525.0       0.68
       122.     5492.0       3.03
       122.     5464.5       1.09
       122.     5400.8       1.80
       122.     5387.8       1.00
       122.     5348.7       1.04
       122.     5309.0       2.14
       144.     6457.9       0.96
       144.     6422.9       2.61
       144.     6173.2       3.68
       144.     6145.4       9.16
       144.     6017.0       1.42
       144.     5882.3       2.24
       144.     5766.3       2.23
       144.     5723.5       0.86
       144.     5581.2       0.99
       144.     5474.0       1.07
       144.     5464.5       1.04
       144.     5340.1       3.04
       151.     6513.4       0.47
       151.     6457.9       1.54
       151.     6319.6       0.53
       151.     6252.8       0.73
       151.     6185.8       1.37
       151.     6145.4       1.41
       151.     6107.0       0.51
       151.     6059.9       1.96
       151.     6017.0       0.42
       151.     6000.5       0.66
       151.     5809.5       3.65
       151.     5723.5       1.49
       151.     5617.2       1.72
       151.     5594.2       2.61
       151.     5525.0       0.54
       151.     5513.0       2.62
       151.     5492.0       0.70
       151.     5474.0       1.04
       151.     5464.5       0.90
       151.     5419.5       0.58
       151.     5400.8       1.40
       151.     5387.8       0.46
       163.     6319.6       1.46
       163.     6145.4       5.15
       163.     6017.0       1.00
       163.     5809.5       2.18
       163.     5766.3       0.96
       163.     5710.5       1.27
       163.     5594.2       4.75
       163.     5513.0       1.89
       163.     5387.8       1.17
       163.     5348.7       1.99
       165.     6457.9       0.49
       165.     6319.6       0.54
       165.     6276.9       3.74
       165.     6264.8       3.40
       165.     6166.0       0.96
       165.     6152.5       0.77
       165.     6145.4       5.37
       165.     6017.0       1.00
       165.     5983.8       2.08
       165.     5809.5       1.26
       165.     5710.5       1.34
       165.     5617.2       1.35
       165.     5594.2       2.48
       165.     5554.1       0.69
       165.     5464.5       0.58
       165.     5400.8       0.53
       165.     5364.6       0.62
       165.     5348.7       0.68
       165.     5309.0       0.68
       190.     6422.9       0.79
       190.     6319.6       1.55
       190.     6264.8       1.08
       190.     6252.8       1.34
       190.     6173.2       2.59
       190.     6152.5       0.64
       190.     6145.4       1.21
       190.     6059.9       1.85
       190.     5941.0       1.09
       190.     5882.3       1.32
       190.     5809.5       2.07
       190.     5784.1       0.58
       190.     5766.3       0.72
       190.     5710.5       0.61
       190.     5617.2       1.08
       190.     5594.2       0.70
       190.     5581.2       1.05
       190.     5474.0       0.80
       190.     5364.6       1.67
       209.     6513.4       4.96
       209.     6319.6       3.60
       209.     6276.9       3.98
       209.     6185.8       2.42
       209.     6173.2       2.72
       209.     6166.0       3.82
       209.     6107.0       2.20
       209.     6059.9       3.38
       209.     5983.8       2.76
       209.     5964.1       3.34
       209.     5766.3       2.60
       209.     5645.8       3.14
       240.     6319.6       0.72
       240.     6276.9       1.23
       240.     6252.8       2.36
       240.     6166.0       0.88
       240.     6145.4       2.25
       240.     6107.0       1.70
       240.     6059.9       3.53
       240.     5983.8       4.03
       240.     5809.5       1.14
       240.     5766.3       0.97
       240.     5594.2       1.55
       240.     5525.0       0.71
       240.     5474.0       0.94
       240.     5400.8       0.67
       240.     5340.1       1.38
       240.     5309.0       0.81
       262.     6457.9       1.28
       262.     6422.9       1.08
       262.     6319.6       1.44
       262.     6252.8       4.14
       262.     6152.5       1.09
       262.     6107.0       2.17
       262.     6059.9       1.05
       262.     5617.2       4.93
       262.     5594.2       3.65
       262.     5581.2       2.91
       262.     5554.1       1.19
       262.     5536.2       0.88
       262.     5348.7       3.07
       262.     5340.1       3.22
       262.     5309.0       0.93
       274.     6457.9       2.30
       274.     6264.8       1.49
       274.     6145.4       1.58
       274.     6107.0       3.79
       274.     6000.5       2.13
       274.     5882.3       2.14
       274.     5723.5       1.17
       274.     5464.5       1.34
       274.     5348.7       4.68
       274.     5340.1       2.20
       293.     6513.4       2.54
       293.     6264.8       0.55
       293.     6252.8       1.58
       293.     6185.8       0.80
       293.     6145.4       0.74
       293.     6130.9       0.30
       293.     6107.0       1.21
       293.     6017.0       3.42
       293.     5983.8       0.49
       293.     5964.1       1.86
       293.     5941.0       1.19
       293.     5809.5       1.14
       293.     5723.5       1.07
       293.     5710.5       1.46
       293.     5645.8       0.56
       293.     5617.2       1.39
       293.     5594.2       0.65
       293.     5554.1       0.37
       293.     5525.0       1.95
       293.     5513.0       4.50
       293.     5474.0       0.77
       293.     5400.8       2.90
       355.     6513.4       0.87
       355.     6457.9       0.60
       355.     6264.8       1.31
       355.     6166.0       1.56
       355.     6152.5       2.59
       355.     6000.5       4.52
       355.     5941.0       1.98
       355.     5723.5       2.98
       355.     5617.2       1.78
       355.     5594.2       1.62
       355.     5474.0       2.55
       400.     6457.9       0.74
       400.     6319.6       0.77
       400.     6276.9       0.95
       400.     6264.8       1.72
       400.     6173.2       2.57
       400.     6152.5       1.90
       400.     6145.4       1.06
       400.     6116.0       1.16
       400.     6107.0       2.38
       400.     5983.8       3.16
       400.     5941.0       3.24
       400.     5809.5       1.51
       400.     5766.3       1.06
       400.     5723.5       1.32
       400.     5594.2       3.59
       400.     5464.5       1.32
       400.     5348.7       1.04
ENDDATA            333
ENDSUBENT          340
ENDENTRY             3
