ENTRY            41066   20180303   20180525   20180525       4178
SUBENT        41066001   20180303   20180525   20180525       4178
BIB                 13         39
INSTITUTE  (4RUSFEI)
REFERENCE  (R,FEI-2220,1991)
           (R,INDC(CCP)-355,1,1993) Engl.transl.of R,FEI-2220,1991
           (J,NSE,120,55,1995)
           (R,FEI-2330,1993)  English version of FEI-2220
AUTHOR     (N.V.Kornilov,A.B.Kagalenko,V.Ya.Baryba,A.B.Balitskij,
           A.A.Androsenko,P.A.Androsenko)
TITLE      Inelastic scattering of 1-2.5 MeV neutrons by U-235 and
            U-238 nuclei
FACILITY   (VDG,4RUSFEI) EG-1 accelerator
INC-SOURCE (P-T)
INC-SPECT   Neutron flux on the sample was measured by two ways:
           relative to elastic scattering by carbon,
           relative to the fission of U-235.
METHOD     (TOF) Path length ~2m.
DETECTOR   (SCIN) Plastic scintillator of 80 mm diameter, 20 mm
           thickness.
           (FISCH)
MONITOR     Detector efficiency was measured by Cf-252 fission
           neutron spectrum from W.Manchart, report
           IAEA-TECDOC-410,158,1986, of Maxwell distribution
           T=1.42 MeV .
ERR-ANALYS (ERR-1)  Error due to neutron flux determination
                    with the help of carbon method
           (ERR-2)  Error due to neutron flux determination
                    with the help of U-235 method
           (ERR-T) Total error
STATUS     (APRVD)   Kornilov, 1991-03-19
HISTORY    (19920319C)  + + Compiled at the center - CJD + +
           (19930220A)  Quantity codes corrected in SAN 002-006,
                      009, 010
           (19940111U)  New reference added
           (19960918A)  Quantity codes corrected in SAN 002, 005
                      009, 010. Data merged in SAN 002, 005
                      007, 008
           (20180303A) M.M. Upper -> lower case correction.
           Dates were corrected for 4-digits year.
           Ref. R,INDC(CCP)-355,1,1993 was added.
           BIB information was updated.
ENDBIB              39
COMMON               2          3
ERR-1      ERR-2
PER-CENT   PER-CENT
 3.6        5.5
ENDCOMMON            3
ENDSUBENT           46
SUBENT        41066002   20180303   20180525   20180525       4178
BIB                  6         12
REACTION   (92-U-235(N,X)0-NN-1,,DA/DE) Sum of el, NU times NF
                    and inelastic sigmas
STATUS     (TABLE) From Kornilov,1993-02
SAMPLE      Metallic disk 10 mm thickness, 46.3 mm diameter
            U-235 content is 89.6 pc, U-238 content is 10.4 pc
            in aluminum  container, wall thickness 0.3 mm
EN-SEC     (E,N)
CORRECTION  Corrections were made on multiple scattering and
            neutron attenuation
HISTORY    (19930220A)  Reaction quantity 'TOT' changed to 'INL'
           (19960918A)  Reaction quantity 'INL  changed to 'X'
            Data from former SANs 003,004 transferred to this one
ENDBIB              12
COMMON               1          3
ANG
ADEG
  120.
ENDCOMMON            3
DATA                 5        371
EN         EN-ERR     E          DATA       ERR-T
MEV        MEV        MEV        MB/SR/MEV  PER-CENT
  1.17       0.012         .1796  219.8579     92.61
  1.17       0.012         .1995  212.8107     69.17
  1.17       0.012         .2192  165.5510     48.94
  1.17       0.012         .2396  225.2319     19.96
  1.17       0.012         .2602  224.9144     15.67
  1.17       0.012         .2805  214.9160     15.94
  1.17       0.012         .2999  236.7885     14.41
  1.17       0.012         .3188  202.3603     13.92
  1.17       0.012         .3397  213.0336     14.10
  1.17       0.012         .3596  217.5374     13.73
  1.17       0.012         .3797  234.9749     11.64
  1.17       0.012         .3998  187.8565     16.38
  1.17       0.012         .4197  186.8770     13.29
  1.17       0.012         .4410  184.6996     14.80
  1.17       0.012         .4597  185.2527     16.26
  1.17       0.012         .4797  212.3398     11.17
  1.17       0.012         .5010  203.6481     12.41
  1.17       0.012         .5211  200.7591     11.31
  1.17       0.012         .5397  171.6526     15.61
  1.17       0.012         .5594  152.0195     13.90
  1.17       0.012         .5801  164.0527     14.84
  1.17       0.012         .5989  140.7582     16.63
  1.17       0.012         .6185  155.2552     14.16
  1.17       0.012         .6391  176.5363     12.40
  1.17       0.012         .6608  208.2379     10.35
  1.17       0.012         .6796  159.6854     18.19
  1.17       0.012         .6994  202.7984     10.20
  1.17       0.012         .7200  201.2242     13.64
  1.17       0.012         .7371  177.6021     15.07
  1.17       0.012         .7595  190.8805     09.89
  1.17       0.012         .7827  182.0408     13.90
  1.17       0.012         .8022  184.5830     13.57
  1.17       0.012         .8224  190.3566     12.81
  1.17       0.012         .8433  182.1158     13.51
  1.17       0.012         .8595  191.8645     13.00
  1.17       0.012         .8763  204.2070     12.52
  1.17       0.012         .8994  214.3399     12.30
  1.17       0.012         .9234  194.0522     13.44
  1.17       0.012         .9420  182.2951     13.90
  1.17       0.012         .9612  183.3619     13.30
  1.17       0.012         .9810  206.1093     11.31
  1.17       0.012        1.0014  239.4777     09.70
  1.17       0.012        1.0224  271.7679     08.87
  1.17       0.012        1.0368  283.9269     08.67
  1.17       0.012        1.0590  361.9363     07.22
  1.17       0.012        1.0819  400.8530     06.79
  1.17       0.012        1.0976  427.6976     06.53
  1.17       0.012        1.1218  703.4849     05.28
  1.17       0.012        1.1467 1255.3110     04.32
  1.17       0.012        1.1639 1650.7490     04.06
  1.17       0.012        1.1814 1561.4140     04.03
  1.17       0.012        1.1993 1054.6970     04.18
  1.17       0.012        1.2176  489.2374     04.90
  1.17       0.012        1.2363  187.3306     07.89
  1.17       0.012        1.2555  109.0490     11.09
  1.17       0.012        1.2751  103.1312     10.09
  1.17       0.012        1.2952   98.4627     13.34
  1.17       0.012        1.3158   88.9816     13.87
  1.17       0.012        1.3369   84.6992     11.42
  1.17       0.012        1.3584   84.2739     10.35
  1.17       0.012        1.3806   80.4356     10.97
  1.17       0.012        1.4032   88.0672     10.53
  1.17       0.012        1.4264   84.3856     12.51
  1.17       0.012        1.4502   70.4400     10.76
  1.17       0.012        1.4746   77.7960     12.66
  1.17       0.012        1.4996   78.8252     11.08
  1.17       0.012        1.5253   60.8997     13.04
  1.17       0.012        1.5515   59.5669     14.80
  1.17       0.012        1.5786   74.9767     16.62
  1.17       0.012        1.6063   58.6485     14.55
  1.17       0.012        1.6348   71.8673     09.90
  1.17       0.012        1.6640   71.7666     09.48
  1.17       0.012        1.6940   76.3109     12.69
  1.17       0.012        1.7248   72.0571     10.86
  1.17       0.012        1.7565   64.7188     09.51
  1.17       0.012        1.7890   69.9219     09.36
  1.17       0.012        1.8225   67.6511     11.04
  1.17       0.012        1.8570   61.0860     10.49
  1.17       0.012        1.8924   74.1022     11.01
  1.17       0.012        1.9288   62.2518     12.04
  1.17       0.012        1.9663   68.8935     15.04
  1.17       0.012        2.0049   55.0047     10.02
  1.17       0.012        2.0447   62.0429     11.35
  1.17       0.012        2.0856   61.7562     09.93
  1.17       0.012        2.1278   58.6292     09.53
  1.17       0.012        2.1713   58.4899     16.20
  1.17       0.012        2.2162   60.3299     10.87
  1.17       0.012        2.2624   49.7793     12.88
  1.17       0.012        2.3101   53.8037     10.01
  1.17       0.012        2.3593   50.7856     11.68
  1.17       0.012        2.4101   47.6137     10.83
  1.17       0.012        2.4627   45.2746     12.71
  1.17       0.012        2.5169   51.2695     14.59
  1.17       0.012        2.5729   39.7534     12.33
  1.17       0.012        2.6308   41.2405     12.06
  1.17       0.012        2.6908   40.3071     11.79
  1.17       0.012        2.7528   38.8249     11.95
  1.17       0.012        2.8169   39.9153     12.04
  1.17       0.012        2.8834   34.9991     15.83
  1.17       0.012        2.9522   36.4355     14.84
  1.17       0.012        3.0235   38.7105     17.15
  1.17       0.012        3.0975   35.0316     16.38
  1.17       0.012        3.1741   26.7178     15.30
  1.17       0.012        3.2537   28.8880     17.03
  1.17       0.012        3.3363   26.3576     16.26
  1.17       0.012        3.4221   30.0318     13.50
  1.17       0.012        3.5113   18.4896     22.72
  1.17       0.012        3.6040   19.8103     18.12
  1.17       0.012        3.7004   23.5746     23.42
  1.17       0.012        3.8007   23.3134     17.37
  1.17       0.012        3.9052   21.5193     22.65
  1.17       0.012        4.0141   24.3358     17.76
  1.17       0.012        4.1277   15.2152     30.81
  1.17       0.012        4.2461   14.5925     31.45
  1.17       0.012        4.3697   12.4524     31.68
  1.17       0.012        4.4987   16.3139     25.40
  1.17       0.012        4.6336    2.8988    120.75
  1.17       0.012        4.7747   10.2957     51.03
  1.17       0.012        4.9223   16.3942     30.05
  1.17       0.012        5.0769    5.7344     60.77
  1.17       0.012        5.2390   11.6452     31.73
  1.79       0.014         .1799  154.4464     87.62
  1.79       0.014         .1997  132.5244     62.12
  1.79       0.014         .2195  143.0017     38.42
  1.79       0.014         .2400  178.7121     16.26
  1.79       0.014         .2606  178.5244     13.62
  1.79       0.014         .2799  179.6605     12.99
  1.79       0.014         .2993  192.5936     10.75
  1.79       0.014         .3194  186.2919     10.07
  1.79       0.014         .3403  206.5384     08.53
  1.79       0.014         .3602  201.4122     09.48
  1.79       0.014         .3788  205.9838     08.62
  1.79       0.014         .3988  209.8360     07.79
  1.79       0.014         .4205  190.4534     07.94
  1.79       0.014         .4399  221.1669     08.16
  1.79       0.014         .4586  217.3134     06.91
  1.79       0.014         .4784  206.1975     07.66
  1.79       0.014         .4997  208.8539     06.45
  1.79       0.014         .5197  212.7934     08.15
  1.79       0.014         .5382  220.1890     06.48
  1.79       0.014         .5607  213.0800     06.32
  1.79       0.014         .5815  235.1901     06.70
  1.79       0.014         .6003  235.3645     06.60
  1.79       0.014         .6200  227.1209     06.59
  1.79       0.014         .6407  231.1782     06.42
  1.79       0.014         .6624  225.0954     06.36
  1.79       0.014         .6814  213.5628     08.53
  1.79       0.014         .7012  214.8734     06.27
  1.79       0.014         .7218  205.6350     08.38
  1.79       0.014         .7390  211.4585     07.99
  1.79       0.014         .7569  204.1051     07.97
  1.79       0.014         .7801  208.2756     05.84
  1.79       0.014         .8044  204.2455     07.49
  1.79       0.014         .8246  176.6955     08.35
  1.79       0.014         .8403  195.6748     07.38
  1.79       0.014         .8565  178.0444     07.70
  1.79       0.014         .8788  191.0900     07.15
  1.79       0.014         .9020  170.7809     07.47
  1.79       0.014         .9199  160.4510     07.91
  1.79       0.014         .9385  171.6787     07.27
  1.79       0.014         .9576  179.4699     07.06
  1.79       0.014         .9772  168.8228     07.20
  1.79       0.014         .9975  183.8538     06.70
  1.79       0.014        1.0185  144.6131     07.76
  1.79       0.014        1.0400  138.7073     08.07
  1.79       0.014        1.0624  140.3879     07.83
  1.79       0.014        1.0853  144.0436     07.41
  1.79       0.014        1.1011  149.7182     07.07
  1.79       0.014        1.1172  148.4637     07.17
  1.79       0.014        1.1337  135.6326     07.61
  1.79       0.014        1.1591  127.1623     07.72
  1.79       0.014        1.1853  112.6538     08.43
  1.79       0.014        1.2033  124.9544     07.65
  1.79       0.014        1.2217  115.7952     08.13
  1.79       0.014        1.2406  126.7738     07.34
  1.79       0.014        1.2598  120.6237     07.78
  1.79       0.014        1.2795  136.8336     07.09
  1.79       0.014        1.2997  121.7747     07.88
  1.79       0.014        1.3204  132.2217     07.38
  1.79       0.014        1.3416  138.8822     07.18
  1.79       0.014        1.3633  138.5164     07.19
  1.79       0.014        1.3855  132.2388     07.48
  1.79       0.014        1.4083  137.5403     07.35
  1.79       0.014        1.4316  128.9302     07.81
  1.79       0.014        1.4555  126.0343     07.86
  1.79       0.014        1.4801  137.6885     07.35
  1.79       0.014        1.5052  144.6044     06.83
  1.79       0.014        1.5310  134.1030     07.00
  1.79       0.014        1.5575  144.3792     06.86
  1.79       0.014        1.5846  183.7568     06.11
  1.79       0.014        1.6125  198.1836     05.95
  1.79       0.014        1.6412  264.0090     05.29
  1.79       0.014        1.6706  299.7737     05.11
  1.79       0.014        1.7007  437.5091     04.83
  1.79       0.014        1.7318  708.3131     04.63
  1.79       0.014        1.7636  973.4652     04.52
  1.79       0.014        1.7964  853.7769     04.50
  1.79       0.014        1.8301  448.0168     04.68
  1.79       0.014        1.8647  161.8843     05.63
  1.79       0.014        1.9004   91.0618     06.98
  1.79       0.014        1.9370   70.0569     07.55
  1.79       0.014        1.9747   69.0761     07.20
  1.79       0.014        2.0136   65.7206     06.51
  1.79       0.014        2.0537   58.2587     07.70
  1.79       0.014        2.0948   72.4200     07.23
  1.79       0.014        2.1374   61.7732     06.72
  1.79       0.014        2.1811   54.0856     08.22
  1.79       0.014        2.2262   60.2285     06.81
  1.79       0.014        2.2728   53.2623     07.22
  1.79       0.014        2.3209   58.7474     07.21
  1.79       0.014        2.3705   54.8645     07.62
  1.79       0.014        2.4216   55.7130     06.96
  1.79       0.014        2.4745   56.7536     07.10
  1.79       0.014        2.5292   52.6017     07.19
  1.79       0.014        2.5856   53.2094     07.92
  1.79       0.014        2.6440   47.9962     07.45
  1.79       0.014        2.7043   42.0324     08.82
  1.79       0.014        2.7668   45.6137     07.47
  1.79       0.014        2.8314   38.0464     09.70
  1.79       0.014        2.8984   41.7230     07.98
  1.79       0.014        2.9678   34.7934     09.03
  1.79       0.014        3.0396   36.2766     09.97
  1.79       0.014        3.1141   33.6991     09.17
  1.79       0.014        3.1915   33.0952     08.92
  1.79       0.014        3.2717   28.3526     11.51
  1.79       0.014        3.3550   30.3430     11.03
  1.79       0.014        3.4416   28.7617     13.04
  1.79       0.014        3.5315   30.6519     10.16
  1.79       0.014        3.6250   20.6419     13.46
  1.79       0.014        3.7223   27.9610     09.36
  1.79       0.014        3.8235   22.2841     13.68
  1.79       0.014        3.9290   23.1879     10.81
  1.79       0.014        4.0389   25.1227     10.26
  1.79       0.014        4.1534   18.2573     13.86
  1.79       0.014        4.2730   20.3515     11.77
  1.79       0.014        4.3978   18.3205     16.51
  1.79       0.014        4.5281   17.1662     13.50
  1.79       0.014        4.6643   13.9078     17.32
  1.79       0.014        4.8068   13.2900     19.86
  1.79       0.014        4.9559   17.8902     13.56
  1.79       0.014        5.1122   11.1391     18.16
  1.79       0.014        5.2759    7.0958     36.53
  1.79       0.014        5.4476    5.1112     41.11
  1.79       0.014        5.6279    5.0029     41.19
  1.79       0.014        5.8174    4.7948     41.06
  1.79       0.014        6.0166    6.0320     32.13
  2.19       0.015         .1796  132.5102     85.66
  2.19       0.015         .1994  164.6295     59.52
  2.19       0.015         .2192  164.6262     35.57
  2.19       0.015         .2396  198.7248     12.67
  2.19       0.015         .2602  191.4920     09.74
  2.19       0.015         .2805  218.0059     07.34
  2.19       0.015         .2998  207.6006     07.38
  2.19       0.015         .3188  219.3384     06.84
  2.19       0.015         .3395  208.5639     07.02
  2.19       0.015         .3594  214.7202     07.34
  2.19       0.015         .3796  226.9269     06.31
  2.19       0.015         .3996  237.3642     05.98
  2.19       0.015         .4195  239.4005     05.19
  2.19       0.015         .4409  213.5794     06.75
  2.19       0.015         .4596  218.6355     06.88
  2.19       0.015         .4796  234.6386     05.55
  2.19       0.015         .5008  220.8046     06.32
  2.19       0.015         .5209  229.3610     05.87
  2.19       0.015         .5395  229.6725     06.73
  2.19       0.015         .5592  227.7435     05.54
  2.19       0.015         .5799  225.0796     06.34
  2.19       0.015         .5986  231.5857     06.00
  2.19       0.015         .6182  218.1983     06.15
  2.19       0.015         .6388  221.1047     05.97
  2.19       0.015         .6605  209.5606     06.13
  2.19       0.015         .6793  204.0768     08.00
  2.19       0.015         .6991  217.1719     05.74
  2.19       0.015         .7196  191.3109     07.82
  2.19       0.015         .7412  203.9946     05.54
  2.19       0.015         .7636  198.6963     07.18
  2.19       0.015         .7823  201.9824     06.84
  2.19       0.015         .8018  185.5305     07.21
  2.19       0.015         .8220  196.6891     06.64
  2.19       0.015         .8429  180.9538     06.93
  2.19       0.015         .8591  176.6121     06.84
  2.19       0.015         .8759  178.0487     06.81
  2.19       0.015         .8989  175.3012     06.74
  2.19       0.015         .9229  170.7699     06.77
  2.19       0.015         .9414  163.2344     06.96
  2.19       0.015         .9607  182.3783     06.30
  2.19       0.015         .9804  191.4603     06.10
  2.19       0.015        1.0008  183.2113     06.20
  2.19       0.015        1.0218  175.9570     06.29
  2.19       0.015        1.0362  168.5015     06.43
  2.19       0.015        1.0584  161.0949     06.48
  2.19       0.015        1.0812  167.2682     06.22
  2.19       0.015        1.0970  154.7075     06.48
  2.19       0.015        1.1211  159.3574     06.24
  2.19       0.015        1.1461  158.7396     06.21
  2.19       0.015        1.1631  151.9061     06.26
  2.19       0.015        1.1807  154.4813     06.17
  2.19       0.015        1.1986  144.5894     06.30
  2.19       0.015        1.2169  140.9764     06.54
  2.19       0.015        1.2356  144.5906     06.23
  2.19       0.015        1.2547  137.3701     06.26
  2.19       0.015        1.2744  137.4602     06.28
  2.19       0.015        1.2944  122.6960     06.51
  2.19       0.015        1.3150  136.6953     06.03
  2.19       0.015        1.3360  117.8041     06.59
  2.19       0.015        1.3576  120.4798     06.29
  2.19       0.015        1.3797  117.7244     06.44
  2.19       0.015        1.4023  108.9361     06.62
  2.19       0.015        1.4254  118.5189     06.20
  2.19       0.015        1.4492  101.3784     06.69
  2.19       0.015        1.4736  117.6466     06.21
  2.19       0.015        1.4986  105.5054     06.66
  2.19       0.015        1.5242  111.2001     06.46
  2.19       0.015        1.5505  100.4408     06.90
  2.19       0.015        1.5774  104.3198     06.61
  2.19       0.015        1.6052  101.3271     06.65
  2.19       0.015        1.6336   92.8416     07.15
  2.19       0.015        1.6627   96.3077     07.11
  2.19       0.015        1.6928  102.4147     06.84
  2.19       0.015        1.7236  103.6894     06.91
  2.19       0.015        1.7552  105.4012     06.96
  2.19       0.015        1.7877  111.9616     06.74
  2.19       0.015        1.8211  112.8169     06.78
  2.19       0.015        1.8555  123.1966     06.27
  2.19       0.015        1.8909  118.3926     06.54
  2.19       0.015        1.9273  131.9718     06.63
  2.19       0.015        1.9648  143.2374     06.64
  2.19       0.015        2.0033  164.8591     05.99
  2.19       0.015        2.0430  198.6038     05.39
  2.19       0.015        2.0840  258.6615     05.29
  2.19       0.015        2.1261  371.0085     05.41
  2.19       0.015        2.1695  437.7911     05.57
  2.19       0.015        2.2143  331.7004     05.60
  2.19       0.015        2.2605  162.7813     05.95
  2.19       0.015        2.3082   86.0934     06.86
  2.19       0.015        2.3573   67.4986     06.72
  2.19       0.015        2.4081   63.0577     07.94
  2.19       0.015        2.4605   53.1105     07.68
  2.19       0.015        2.5146   48.3297     07.95
  2.19       0.015        2.5707   50.6046     07.70
  2.19       0.015        2.6285   51.3204     07.56
  2.19       0.015        2.6883   48.2124     07.86
  2.19       0.015        2.7502   45.2394     07.98
  2.19       0.015        2.8143   41.1321     08.38
  2.19       0.015        2.8807   39.4532     08.83
  2.19       0.015        2.9493   40.4619     07.32
  2.19       0.015        3.0206   39.4482     08.32
  2.19       0.015        3.0944   36.7712     08.39
  2.19       0.015        3.1710   35.2674     09.10
  2.19       0.015        3.2504   31.7314     09.17
  2.19       0.015        3.3329   32.2810     09.03
  2.19       0.015        3.4186   28.0440     10.49
  2.19       0.015        3.5076   31.2858     08.66
  2.19       0.015        3.6001   25.3744     11.07
  2.19       0.015        3.6964   27.4540     09.97
  2.19       0.015        3.7966   25.7360     10.41
  2.19       0.015        3.9010   25.7458     13.14
  2.19       0.015        4.0097   20.1089     13.84
  2.19       0.015        4.1230   20.2313     13.65
  2.19       0.015        4.2412   16.9278     15.62
  2.19       0.015        4.3646   19.5731     11.17
  2.19       0.015        4.4934   15.6193     12.67
  2.19       0.015        4.6280   13.4686     19.70
  2.19       0.015        4.7689   12.8913     20.23
  2.19       0.015        4.9163   13.8600     18.43
  2.19       0.015        5.0705   11.0767     22.40
  2.19       0.015        5.2323   10.2129     23.80
  2.19       0.015        5.4019   10.5681     16.79
  2.19       0.015        5.5799    4.9994     46.00
  2.19       0.015        5.7669    5.1227     42.85
  2.19       0.015        5.9634   11.3605     18.37
ENDDATA            373
ENDSUBENT          394
NOSUBENT      41066003     960918              20050926       0000
NOSUBENT      41066004     960918              20050926       0000
SUBENT        41066005   20180303   20180525   20180525       4178
BIB                  6         12
REACTION   (92-U-238(N,X)0-NN-1,,DA/DE) Sum of elastic, NU times
             fission and inelastic sigmas
STATUS     (TABLE) From Kornilov,1993-02
SAMPLE      Metallic disk in aluminum  container, wall thickness
            0.3 mm, U-238 content is 99.5 percent
            disk diameter 46.3 mm, thickness 10 mm
EN-SEC     (E,N)
CORRECTION  Corrections were made on multiple scattering and
            neutron attenuation
HISTORY    (19930220A)  Reaction quantity 'TOT' changed to 'INL'
           (19960918A)  Reaction quantity 'INL' changed to 'X'
            Data from former SAN 006 transferred to this one
ENDBIB              12
COMMON               1          3
ANG
ADEG
 120.
ENDCOMMON            3
DATA                 5        240
EN         EN-ERR     E          DATA       ERR-T
MEV        MEV        MEV        MB/SR/MEV  PER-CENT
   1.79      0.014      .1597      131.8973     99.84
   1.79      0.014      .1798      215.6287     75.18
   1.79      0.014      .1997      152.9607     54.78
   1.79      0.014      .2194      172.1443     33.23
   1.79      0.014      .2399      232.9687     12.60
   1.79      0.014      .2605      215.8116     10.80
   1.79      0.014      .2798      240.2264     09.37
   1.79      0.014      .2991      257.0526     07.85
   1.79      0.014      .3192      276.2252     06.76
   1.79      0.014      .3401      209.4151     07.89
   1.79      0.014      .3600      202.7059     08.76
   1.79      0.014      .3786      225.8618     07.41
   1.79      0.014      .3986      194.1730     07.71
   1.79      0.014      .4203      175.6621     07.83
   1.79      0.014      .4417      141.9032     09.65
   1.79      0.014      .4604      133.7191     10.88
   1.79      0.014      .4805      164.6682     07.41
   1.79      0.014      .5018      210.1910     06.59
   1.79      0.014      .5220      238.9243     05.79
   1.79      0.014      .5406      221.9462     06.90
   1.79      0.014      .5603      221.0508     05.62
   1.79      0.014      .5811      203.3007     06.82
   1.79      0.014      .5999      182.0057     07.30
   1.79      0.014      .6196      238.4783     05.79
   1.79      0.014      .6402      266.3934     05.31
   1.79      0.014      .6619      306.4384     04.76
   1.79      0.014      .6809      285.8412     06.26
   1.79      0.014      .7007      271.3460     04.87
   1.79      0.014      .7213      307.4591     05.64
   1.79      0.014      .7385      327.2800     05.33
   1.79      0.014      .7563      285.4436     05.67
   1.79      0.014      .7796      237.8880     04.84
   1.79      0.014      .8038      250.5006     05.80
   1.79      0.014      .8240      237.6248     06.03
   1.79      0.014      .8397      246.8389     05.69
   1.79      0.014      .8559      179.6730     06.85
   1.79      0.014      .8781      106.5329     09.93
   1.79      0.014      .9013       64.7681     14.89
   1.79      0.014      .9192       46.5638     20.21
   1.79      0.014      .9377       68.8563     13.34
   1.79      0.014      .9633       76.0043     12.14
   1.79      0.014      .9831       82.1226     10.99
   1.79      0.014      .9967       81.6631     10.80
   1.79      0.014     1.0176       86.7365     10.22
   1.79      0.014     1.0391      107.5422     08.65
   1.79      0.014     1.0614      128.7791     07.31
   1.79      0.014     1.0844      117.4104     07.63
   1.79      0.014     1.1001      111.6719     07.78
   1.79      0.014     1.1162       89.6045     09.23
   1.79      0.014     1.1410       58.1903     13.25
   1.79      0.014     1.1666       42.0580     17.26
   1.79      0.014     1.1842       49.4860     14.76
   1.79      0.014     1.2022       42.6258     16.54
   1.79      0.014     1.2206       34.2068     20.65
   1.79      0.014     1.2394       51.8710     13.33
   1.79      0.014     1.2586       37.3703     18.69
   1.79      0.014     1.2783       36.7376     18.64
   1.79      0.014     1.2985       32.5976     21.76
   1.79      0.014     1.3191       46.0946     15.51
   1.79      0.014     1.3403       41.9035     17.16
   1.79      0.014     1.3620       45.0810     16.24
   1.79      0.014     1.3841       44.9732     16.60
   1.79      0.014     1.4068       59.9012     13.11
   1.79      0.014     1.4301       67.3177     11.92
   1.79      0.014     1.4541       68.1819     11.77
   1.79      0.014     1.4785       76.3680     10.39
   1.79      0.014     1.5037       77.5551     09.66
   1.79      0.014     1.5294       77.1644     09.43
   1.79      0.014     1.5558       88.0745     08.55
   1.79      0.014     1.5830      132.0121     06.65
   1.79      0.014     1.6108      167.4108     05.81
   1.79      0.014     1.6394      216.6752     05.07
   1.79      0.014     1.6687      283.5517     04.58
   1.79      0.014     1.6988      435.6396     04.24
   1.79      0.014     1.7298      721.9996     04.09
   1.79      0.014     1.7617      871.2086     04.11
   1.79      0.014     1.7943      651.0854     04.17
   1.79      0.014     1.8280      292.1378     04.66
   1.79      0.014     1.8626       90.6899     07.01
   1.79      0.014     1.8981       42.5564     10.75
   1.79      0.014     1.9347       29.9558     12.64
   1.79      0.014     1.9724       24.0144     14.55
   1.79      0.014     2.0112       22.5825     12.36
   1.79      0.014     2.0717       23.1223     16.49
   1.79      0.014     2.1347       19.9716     12.94
   1.79      0.014     2.1784       15.9923     20.98
   1.79      0.014     2.2234       21.2148     11.75
   1.79      0.014     2.2699       21.0030     11.99
   1.79      0.014     2.3178       21.8361     12.77
   1.79      0.014     2.3674       21.8117     13.70
   1.79      0.014     2.4184       21.7432     11.34
   1.79      0.014     2.4712       13.7399     17.49
   1.79      0.014     2.5257       18.8440     12.99
   1.79      0.014     2.5821       16.1730     18.55
   1.79      0.014     2.6403       17.9342     13.35
   1.79      0.014     2.7006       15.8447     18.52
   1.79      0.014     2.7629       16.3001     13.31
   1.79      0.014     2.8274       13.9650     21.69
   1.79      0.014     2.8942       15.4587     15.02
   1.79      0.014     2.9634       15.6582     15.81
   1.79      0.014     3.0352       11.8324     25.09
   1.79      0.014     3.1095       12.7726     18.64
   1.79      0.014     3.1866       11.8375     18.44
   1.79      0.014     3.2667        8.4603     33.38
   1.79      0.014     3.3498       10.0292     28.63
   1.79      0.014     3.4361       13.6259     25.90
   1.79      0.014     3.5259       12.8427     20.06
   1.79      0.014     3.6192        6.1732     40.38
   1.79      0.014     3.7162       11.6515     17.17
   1.79      0.014     3.8172        6.6556     41.57
   1.79      0.014     3.9224        7.8098     26.05
   1.79      0.014     4.0320        6.3700     29.76
   1.79      0.014     4.1462        5.7799     38.04
   1.79      0.014     4.2655        6.2566     30.11
   1.79      0.014     4.3899        2.3988     99.29
   1.79      0.014     4.5199        6.7279     30.01
   1.79      0.014     4.6558        7.1503     31.10
   1.79      0.014     4.7978        4.0612     62.26
   1.79      0.014     4.9466        3.4022     58.79
   1.79      0.014     5.1024        3.3166     54.92
   2.19      0.015      .1598      132.4310     97.35
   2.19      0.015      .1794      175.9835     75.21
   2.19      0.015      .1998      194.8632     52.47
   2.19      0.015      .2203      189.3532     30.44
   2.19      0.015      .2401      223.3779     11.26
   2.19      0.015      .2599      218.1110     08.59
   2.19      0.015      .2801      282.1275     05.81
   2.19      0.015      .3006      277.2405     05.37
   2.19      0.015      .3208      238.8130     06.07
   2.19      0.015      .3404      227.9737     06.90
   2.19      0.015      .3605      220.1624     06.27
   2.19      0.015      .3806      214.8003     07.00
   2.19      0.015      .4008      257.6916     04.87
   2.19      0.015      .4207      255.3553     05.02
   2.19      0.015      .4402      221.9337     06.21
   2.19      0.015      .4610      201.4892     06.14
   2.19      0.015      .4811      197.9722     06.44
   2.19      0.015      .5000      241.8308     05.54
   2.19      0.015      .5201      247.0497     05.15
   2.19      0.015      .5414      252.9002     04.91
   2.19      0.015      .5611      259.4606     05.24
   2.19      0.015      .5789      245.4371     05.37
   2.19      0.015      .5976      213.3341     05.75
   2.19      0.015      .6171      209.5371     05.75
   2.19      0.015      .6376      216.1983     05.50
   2.19      0.015      .6592      210.9014     05.48
   2.19      0.015      .6819      208.6120     05.42
   2.19      0.015      .7017      234.3757     06.30
   2.19      0.015      .7182      194.8377     06.96
   2.19      0.015      .7397      165.5592     05.77
   2.19      0.015      .7621      167.7156     07.39
   2.19      0.015      .7808      167.3049     07.19
   2.19      0.015      .8002      132.1789     08.45
   2.19      0.015      .8203      125.0736     08.53
   2.19      0.015      .8412      108.6348     09.38
   2.19      0.015      .8628      110.6513     08.96
   2.19      0.015      .8796      131.3614     07.71
   2.19      0.015      .8970      131.6466     07.58
   2.19      0.015      .9208      146.9274     06.84
   2.19      0.015      .9394      133.0352     07.38
   2.19      0.015      .9585      138.8060     06.91
   2.19      0.015      .9782      125.4777     07.39
   2.19      0.015      .9985      136.9935     06.86
   2.19      0.015     1.0194      147.4057     06.44
   2.19      0.015     1.0411      154.2444     06.16
   2.19      0.015     1.0634      157.9181     06.00
   2.19      0.015     1.0787      167.7380     05.59
   2.19      0.015     1.0943      141.6032     06.20
   2.19      0.015     1.1184      167.8762     05.56
   2.19      0.015     1.1433      168.1735     05.46
   2.19      0.015     1.1603      142.4742     06.00
   2.19      0.015     1.1777      138.2795     06.03
   2.19      0.015     1.1955      137.4619     05.96
   2.19      0.015     1.2138      118.2208     06.59
   2.19      0.015     1.2324      114.5858     06.60
   2.19      0.015     1.2515       96.1085     07.25
   2.19      0.015     1.2710       79.4099     08.39
   2.19      0.015     1.2910       58.9119     10.47
   2.19      0.015     1.3115       51.2460     11.32
   2.19      0.015     1.3325       41.5579     13.64
   2.19      0.015     1.3540       54.4540     10.44
   2.19      0.015     1.3759       52.4764     10.84
   2.19      0.015     1.3985       46.5983     11.80
   2.19      0.015     1.4216       57.7002     09.54
   2.19      0.015     1.4453       73.2049     07.85
   2.19      0.015     1.4695       72.1579     07.89
   2.19      0.015     1.4944       65.8093     08.52
   2.19      0.015     1.5199       49.3107     10.69
   2.19      0.015     1.5461       47.0353     10.98
   2.19      0.015     1.5730       36.7734     13.23
   2.19      0.015     1.6005       33.1798     14.69
   2.19      0.015     1.6289       28.7805     17.36
   2.19      0.015     1.6579       27.3504     18.59
   2.19      0.015     1.6878       34.8731     14.81
   2.19      0.015     1.7184       33.4699     15.88
   2.19      0.015     1.7499       45.9644     12.17
   2.19      0.015     1.7823       51.5292     10.95
   2.19      0.015     1.8156       49.2964     11.41
   2.19      0.015     1.8498       62.7964     08.93
   2.19      0.015     1.8850       57.5227     09.65
   2.19      0.015     1.9212       58.4239     09.83
   2.19      0.015     1.9585       75.5707     08.64
   2.19      0.015     1.9969      120.8010     06.32
   2.19      0.015     2.0364      157.0094     05.29
   2.19      0.015     2.0771      231.8912     04.86
   2.19      0.015     2.1191      356.3217     04.84
   2.19      0.015     2.1623      421.7169     05.07
   2.19      0.015     2.2068      284.5518     05.19
   2.19      0.015     2.2528      103.7187     06.17
   2.19      0.015     2.3002       41.2137     09.37
   2.19      0.015     2.3491       26.3719     10.06
   2.19      0.015     2.3996       27.1813     14.00
   2.19      0.015     2.4517       23.6455     13.01
   2.19      0.015     2.5056       18.4522     16.28
   2.19      0.015     2.5612       17.4749     16.86
   2.19      0.015     2.6188       15.9580     17.92
   2.19      0.015     2.6783       20.0799     14.79
   2.19      0.015     2.7399       20.6958     13.77
   2.19      0.015     2.8036       17.5641     15.94
   2.19      0.015     2.8695       17.3975     16.61
   2.19      0.015     2.9379       19.7559     10.64
   2.19      0.015     3.0086       13.7778     18.26
   2.19      0.015     3.0820       15.8746     15.32
   2.19      0.015     3.1581       12.9189     20.68
   2.19      0.015     3.2371       13.4227     17.80
   2.19      0.015     3.3191       13.9841     17.24
   2.19      0.015     3.4042       14.0531     18.59
   2.19      0.015     3.4927       14.0160     15.28
   2.19      0.015     3.5846        7.3851     32.95
   2.19      0.015     3.6803       12.0930     19.01
   2.19      0.015     3.7798        9.8756     23.07
   2.19      0.015     3.8834       12.8717     24.94
   2.19      0.015     3.9914        7.9739     32.30
   2.19      0.015     4.1039        8.0245     32.01
   2.19      0.015     4.2213        3.4972     70.24
   2.19      0.015     4.3438        8.8454     20.27
   2.19      0.015     4.4718        9.0727     18.86
   2.19      0.015     4.6054        4.4117     58.11
   2.19      0.015     4.7452        4.5957     55.24
   2.19      0.015     4.8914        2.5273     95.10
ENDDATA            242
ENDSUBENT          263
NOSUBENT      41066006     960918              20050926       0000
SUBENT        41066007   20180303   20180525   20180525       4178
BIB                  8         20
REACTION  1(92-U-235(N,X)0-NN-1,,SIG)
          2(92-U-235(N,X)0-NN-1,,SIG)
SAMPLE      Metallic disk 10 mm thickness, 46.3 mm diameter
            U-235 content is 89.6 pc, U-238 content is 10.4 pc
            in aluminum  container, wall thickness 0.3 mm
ANALYSIS  1(4PI1A)
          2 Inelastic cross-section data by addition to the
            experimental data which do not belong to
            the investigated energy region and are taken from
            the ENDF/B-6 data file
MISC-COL   (MISC1)  Value of correction
           (MISC2) Upper value of energy range integration
CORRECTION  Corrections were made on multiple scattering and
            neutron attenuation
COMMENT     Lower value of energy range integration is zero
STATUS     (TABLE) Table 4 of R,INDC(CCP)-355,1,1993
          1(DEP,41066009) Angular distribution
HISTORY    (19960918U)  SOME BIB-information specified
                      Data added from former SUBENT 41066011
                      Reaction expression (N,INL) changed to (N,X)
ENDBIB              20
NOCOMMON             0          0
DATA                 7          3
EN         EN-ERR     DATA      1ERR-T     1DATA      2MISC1
MISC2
MEV        MEV        B          B          B          NO-DIM
MEV
  1.17       0.012       1.39      0.13       1.91       1.244
     1.04
  1.79       0.014       1.64      0.12       2.21       1.230
     1.55
  2.19       0.015       1.84      0.13       2.36       1.190
     1.95
ENDDATA             10
ENDSUBENT           35
SUBENT        41066008   20180303   20180525   20180525       4178
BIB                  8         20
REACTION  1(92-U-238(N,X)0-NN-1,,SIG)
          2(92-U-238(N,X)0-NN-1,,SIG)
SAMPLE      Metallic disk in aluminum  container, wall thickness
            0.3 mm, U-238 content is 99.5 percent
            Disk diameter 46.3 mm, thickness 10 mm
ANALYSIS  1(4PI1A) Fission and elastic sigmas extracted
          2 Inelastic cross-section data by addition to the
            experimental data which do not belong to
            the investigated energy region and are taken from
            the ENDF/B-6 data file
MISC-COL   (MISC1) Value of correction
           (MISC2) Upper value of energy range integration
CORRECTION  Corrections were made on neutron multiple scattering
            and attenuation
COMMENT     Lower value of energy range integration is zero
STATUS     (TABLE) Table 4 of R,INDC(CCP)-355,1,1993
          1(DEP,41066010) Angular distributiion
HISTORY    (19960918U)  Some BIB-information specified
                      data added from former SUBENT 41066012
                      Reaction expression (N,INL) changed to (N,X)
ENDBIB              20
NOCOMMON             0          0
DATA                 7          3
EN         EN-ERR     DATA      1ERR-T     1DATA      2MISC1
MISC2
MEV        MEV        B          B          B          NO-DIM
MEV
  1.17       0.012      1.30       0.13       2.56       1.295
     0.94
  1.79       0.014      2.27       0.12       3.05       1.131
     1.55
  2.19       0.015      2.39       0.12       3.03       1.083
     1.95
ENDDATA             10
ENDSUBENT           35
SUBENT        41066009   20180303   20180525   20180525       4178
BIB                  8         14
REACTION   (92-U-235(N,X)0-NN-1,,DA)
ANALYSIS   .Data obtained by integration over energy range
SAMPLE      Metallic disk 10 mm thickness, 46.3 mm diameter
            U-235 content is 89.6 pc, U-238 content is 10.4 pc
            in aluminum  container, wall thickness 0.3 mm
MISC-COL   (MISC1) Value of correction
           (MISC2) Upper value of energy range integration
CORRECTION  Corrections were made on multiple scattering and
            neutron attenuation
COMMENT     Lower value of energy range integration is zero
STATUS     (TABLE) Table 4 of R,INDC(CCP)-355,1,1993
           (DEP,41066002) Angular -energy distribution
HISTORY    (19930220A)  Reaction quantity 'TOT' changed to 'INL'
           (19960918A)  Reaction quantity 'INL' changed to 'X'
ENDBIB              14
COMMON               1          3
ANG
ADEG
  120.
ENDCOMMON            3
DATA                 6          3
EN         EN-ERR     DATA       ERR-T      MISC1      MISC2
MEV        MEV        MB/SR      MB/SR      NO-DIM     MEV
  1.17       0.012     184.3      10.         1.244      1.04
  1.79       0.014     251.5       9.6        1.230      1.55
  2.19       0.015     300.3      11.         1.190      1.95
ENDDATA              5
ENDSUBENT           28
SUBENT        41066010   20180303   20180525   20180525       4178
BIB                  8         14
REACTION   (92-U-238(N,X)0-NN-1,,DA)
ANALYSIS   .Data obtained by integration over energy range
SAMPLE      Metallic disk in aluminum  container, wall thickness
            0.3 mm, U-238 content is 99.5 percent
            Disk diameter 46.3 mm, thickness 10 mm
MISC-COL   (MISC1) Value of correction
           (MISC2) Upper value of energy integration
CORRECTION  Corrections were made on neutron multiple scattering
            and attenuation excluding En=1.17 MeV
COMMENT     Lower value of energy range integration is zero
STATUS     (TABLE) Table 4 of R,INDC(CCP)-355,1,1993
           (DEP,41066005) Angular-energy distribution
HISTORY    (19930220A)  Reaction quantity 'TOT' changed to 'INL'
           (19960918A)  Reaction quantity 'INL' changed to 'X'
ENDBIB              14
COMMON               1          3
ANG
ADEG
   120.
ENDCOMMON            3
DATA                 6          3
EN         EN-ERR     DATA       ERR-T      MISC1      MISC2
MEV        MEV        MB/SR      MB/SR      NO-DIM     MEV
  1.17       0.012      105.9      10.        1.295      0.94
  1.79       0.014      227.3       9.3       1.131      1.55
  2.19       0.015      254.8      10.        1.083      1.95
ENDDATA              5
ENDSUBENT           28
NOSUBENT      41066011     960918              20050926       0000
NOSUBENT      41066012     960918              20050926       0000
SUBENT        41066013   20180303   20180525   20180525       4178
BIB                  7         12
REACTION  1(92-U-235(N,F)0-NN-1,PR,KE)  Average neutron kin-E
          2(92-U-235(N,F),PR,KEM) Maxwell fis. neutron spectrum T
SAMPLE      Metallic disk 10 mm thickness, 46.3 mm diameter
            U-235 content is 89.6 pc, U-238 content is 10.4 pc
            in aluminum  container, wall thickness 0.3 mm
CORRECTION  Corrections were made on multiple scattering and
            neutron attenuation
ERR-ANALYS (ERR-S) Statistical error
STATUS    2(TABLE) Table II of J,NSE,120,55,1995
COMMENT   1 Of compiler. Source of AKE is not clear, probably
           calculated by compiler as 3/2 * kT .
HISTORY    (19960918C)  + + Compiled at the center - CJD + +
ENDBIB              12
NOCOMMON             0          0
DATA                 6          3
EN         EN-ERR     DATA      1ERR-T     1DATA      2ERR-S     2
MEV        MEV        MEV        MEV        MEV        MEV
  1.17       0.012      1.935      0.075      1.29      0.05
  1.79       0.014      2.085      0.105      1.39      0.07
  2.19       0.015      2.04       0.09       1.36      0.06
ENDDATA              5
ENDSUBENT           22
SUBENT        41066014   20180303   20180525   20180525       4178
BIB                  7         12
REACTION  1(92-U-238(N,F)0-NN-1,PR,KE) Fiss.neutron aver. kin-E
          2(92-U-238(N,F),PR,KEM) Maxwell fis. neutron spectrum T
SAMPLE      Metallic disk in aluminum  container, wall thickness
            0.3 mm, U-238 content is 99.5 percent
            Disk diameter 46.3 mm, thickness 10 mm
CORRECTION  Corrections were made on neutron multiple scattering
            and attenuation excluding En=1.17 MeV
ERR-ANALYS (ERR-S) Statistical error
STATUS    2(TABLE) Table II of J,NSE,120,55,1995
COMMENT   1 Of compiler. Source of AKE is not clear, probably
           calculated by compiler as 3/2 * kT .
HISTORY    (19960918C)  + + Compiled at the center - CJD + +
ENDBIB              12
NOCOMMON             0          0
DATA                 6          2
EN         EN-ERR     DATA      1ERR-T     1DATA      2ERR-S     2
MEV        MEV        MEV        MEV        MEV        MEV
  1.79       0.014      2.01       0.12       1.34      0.08
  2.19       0.015      1.965      0.135      1.31      0.09
ENDDATA              4
ENDSUBENT           21
ENDENTRY            14
