ENTRY            67030     850401
SUBENT        67030001     850401              20050926       0000
BIB                  7          7
INSTITUTE  (2ZZZGEL)
REFERENCE  (C,76LOWELL,,1248,7607)
AUTHOR     (J.WINTER,W.L.MEWISSEN,F.POORTMANS,G.ROHR,R.SHELLEY)
TITLE      SPIN AND PARITY ASSIGNMENTS OF NB-93 NEUTRON RESONANCES
DETECTOR   (GELI) GERMENIUM-LITHIUM DETECTOR
STATUS     DATA RECEIVED BY NNDC IN PRIVATE COMM., ROHR, 77/8.
HISTORY    (780726C)
ENDBIB               7
NOCOMMON             0          0
ENDSUBENT           10
SUBENT        67030002     850401              20050926       0000
BIB                  3          8
REACTION  1(41-NB-93(N,0),,EN)
          2(41-NB-93(N,0),,J)
          3(41-NB-93(N,0),,PTY)
METHOD     LOW LEVEL POPULATION METHOD APPLIED TO LOW ENERGY
            CAPTURE GAMMA RAY SPECTRA
FLAG       (1.) SPIN NOT DEFINITE
           (2.) PARITY NOT DEFINITE
           (3.) SPIN AND PARITY NOT DEFINITE
ENDBIB               8
NOCOMMON             0          0
DATA                 4         53
DATA      1DATA      2DATA      3FLAG
EV         NO-DIM     NO-DIM     NO-DIM
 3.5910E+01 5.0000E+00 1.0000E+00
 4.2260E+01 4.0000E+00 1.0000E+00
 9.4395E+01 3.0000E+00 1.0000E+00
 1.0587E+02 4.0000E+00 0.0000E+00
 1.1909E+02 5.0000E+00 0.0000E+00
 1.9412E+02 5.0000E+00 0.0000E+00
 2.4384E+02 4.0000E+00 1.0000E+00
 3.1890E+02 5.0000E+00 1.0000E+00
 3.3544E+02 4.0000E+00 0.0000E+00
 3.7844E+02 5.0000E+00 0.0000E+00
 4.6027E+02 5.0000E+00 0.0000E+00
 5.0076E+02 5.0000E+00 1.0000E+00
 5.9960E+02 4.0000E+00 1.0000E+00 1.0000E+00
 6.0388E+02 6.0000E+00 1.0000E+00
 6.4108E+02 4.0000E+00 0.0000E+00
 6.7159E+02 6.0000E+00 1.0000E+00
 7.2092E+02 4.0000E+00 1.0000E+00
 7.4101E+02 4.0000E+00 0.0000E+00
 9.1296E+02 4.0000E+00 1.0000E+00
 9.3488E+02 5.0000E+00 0.0000E+00
 9.5331E+02 6.0000E+00 1.0000E+00
 1.0091E+03 4.0000E+00 0.0000E+00
 1.0167E+03 6.0000E+00 1.0000E+00
 1.1490E+03 5.0000E+00 0.0000E+00
 1.1752E+03 4.0000E+00 0.0000E+00
 1.1945E+03 5.0000E+00 0.0000E+00
 1.2293E+03 4.0000E+00 0.0000E+00
 1.2435E+03 5.0000E+00 1.0000E+00
 1.2835E+03 6.0000E+00 1.0000E+00
 1.3502E+03 5.0000E+00 1.0000E+00
 1.3548E+03 6.0000E+00 1.0000E+00 1.0000E+00
 1.3927E+03 4.0000E+00 0.0000E+00
 1.4516E+03 4.0000E+00 0.0000E+00
 1.4673E+03 4.0000E+00 1.0000E+00
 1.5403E+03 6.0000E+00 1.0000E+00 1.0000E+00
 1.6159E+03 6.0000E+00 1.0000E+00
 1.6537E+03 5.0000E+00 0.0000E+00
 1.7126E+03 4.0000E+00 1.0000E+00
 1.7666E+03 5.0000E+00 1.0000E+00
 1.8120E+03 4.0000E+00 0.0000E+00
 1.8324E+03 5.0000E+00 1.0000E+00 2.0000E+00
 1.9908E+03 4.0000E+00 0.0000E+00
 2.0218E+03 5.0000E+00 0.0000E+00
 2.0689E+03 4.0000E+00 0.0000E+00
 2.1175E+03 3.0000E+00 1.0000E+00
 2.2297E+03 5.0000E+00 0.0000E+00
 2.4219E+03 5.0000E+00 0.0000E+00
 2.4680E+03 6.0000E+00 1.0000E+00
 2.5154E+03 4.0000E+00 1.0000E+00 1.0000E+00
 2.5808E+03 4.0000E+00 0.0000E+00 3.0000E+00
 2.6438E+03 4.0000E+00 0.0000E+00
 2.7143E+03 4.0000E+00 1.0000E+00
 2.9290E+03 4.0000E+00 0.0000E+00 1.0000E+00
ENDDATA             55
ENDSUBENT           68
ENDENTRY             2
