ENTRY            O0817   20180328   20190207   20190201       O066
SUBENT        O0817001   20180328   20190207   20190201       O066
BIB                 10         18
TITLE      Absolute cross section measurements for H and D elastic
           recoil using 1 to 2.5 MeV He-4 ions and for the
            C-12(d,p)C-13 and O-16(d,p)O-17 nuclear reactions
AUTHOR     (V.Quillet,F.Abel,M.Schott)
INSTITUTE  (2FR PAR)
REFERENCE  (J,NIM/B,83,47,1993)
FACILITY   (VDG,2FR PAR)
DETECTOR   (SIBAR) Two surface barrier detector.
METHOD     (BCINT) It was checked that the error on the dose
           incident on the sample was always less than 1%.
ADD-RES    A typical example of the hydrogen and deuterium losses
           as a function of He-4 dose is presented.
ERR-ANALYS (EN-ERR) The stability of the beam energy.
HISTORY    (20001027C)
           (20001103U) Last checking has been done.
           (20010323A) DATE is corrected
           (20180328A) SD: REACTION code corrected in Subents
           002-005. Small corrections in all Subents.
ENDBIB              18
COMMON               1          3
EN-ERR
KEV
        0.3
ENDCOMMON            3
ENDSUBENT           25
SUBENT        O0817002   20180328   20190207   20190201       O066
BIB                  4          6
REACTION   (1-H-1(A,EL)1-H-1,,DA,P,,RECOM)
STATUS     (TABLE) From http://Ibaserver.Physics.Isu.Edu/Sigmabase
COMMENT    - By Compiler - The data, which are presented in data
           section, are result of interpolation of experimental
           data.
HISTORY    (20180328A) SD: SF7=P added in REACTION code.
ENDBIB               6
NOCOMMON             0          0
DATA                 3       1500
EN         ANG        DATA
KEV        ADEG       MB/SR
      1003.        10.     689.47
      1003.        20.     771.78
      1003.        30.     933.13
      1006.        10.     686.34
      1006.        20.      768.2
      1006.        30.     928.52
      1009.        10.     683.24
      1009.        20.     764.64
      1009.        30.     923.94
      1012.        10.     680.17
      1012.        20.     761.13
      1012.        30.     919.41
      1015.        10.     677.12
      1015.        20.     757.64
      1015.        30.     914.92
      1018.        10.     674.11
      1018.        20.     754.18
      1018.        30.     910.47
      1021.        10.     671.12
      1021.        20.     750.76
      1021.        30.     906.07
      1024.        10.     668.16
      1024.        20.     747.37
      1024.        30.      901.7
      1027.        10.     665.22
      1027.        20.       744.
      1027.        30.     897.37
      1030.        10.     662.31
      1030.        20.     740.67
      1030.        30.     893.08
      1033.        10.     659.43
      1033.        20.     737.37
      1033.        30.     888.83
      1036.        10.     656.57
      1036.        20.      734.1
      1036.        30.     884.61
      1039.        10.     653.74
      1039.        20.     730.86
      1039.        30.     880.44
      1042.        10.     650.94
      1042.        20.     727.65
      1042.        30.      876.3
      1045.        10.     648.15
      1045.        20.     724.46
      1045.        30.     872.19
      1048.        10.      645.4
      1048.        20.     721.31
      1048.        30.     868.13
      1051.        10.     642.67
      1051.        20.     718.18
      1051.        30.      864.1
      1054.        10.     639.96
      1054.        20.     715.08
      1054.        30.      860.1
      1057.        10.     637.27
      1057.        20.       712.
      1057.        30.     856.14
      1060.        10.     634.61
      1060.        20.     708.96
      1060.        30.     852.22
      1063.        10.     631.98
      1063.        20.     705.94
      1063.        30.     848.32
      1066.        10.     629.36
      1066.        20.     702.95
      1066.        30.     844.47
      1069.        10.     626.77
      1069.        20.     699.98
      1069.        30.     840.64
      1072.        10.      624.2
      1072.        20.     697.04
      1072.        30.     836.85
      1075.        10.     621.65
      1075.        20.     694.13
      1075.        30.      833.1
      1078.        10.     619.13
      1078.        20.     691.24
      1078.        30.     829.37
      1081.        10.     616.63
      1081.        20.     688.38
      1081.        30.     825.68
      1084.        10.     614.14
      1084.        20.     685.54
      1084.        30.     822.02
      1087.        10.     611.68
      1087.        20.     682.72
      1087.        30.     818.38
      1090.        10.     609.24
      1090.        20.     679.93
      1090.        30.     814.79
      1093.        10.     606.83
      1093.        20.     677.17
      1093.        30.     811.22
      1096.        10.     604.43
      1096.        20.     674.43
      1096.        30.     807.68
      1099.        10.     602.05
      1099.        20.     671.71
      1099.        30.     804.17
      1102.        10.     599.69
      1102.        20.     669.01
      1102.        30.     800.69
      1105.        10.     597.36
      1105.        20.     666.34
      1105.        30.     797.24
      1108.        10.     595.04
      1108.        20.     663.69
      1108.        30.     793.82
      1111.        10.     592.74
      1111.        20.     661.06
      1111.        30.     790.43
      1114.        10.     590.46
      1114.        20.     658.46
      1114.        30.     787.07
      1117.        10.      588.2
      1117.        20.     655.87
      1117.        30.     783.73
      1120.        10.     585.96
      1120.        20.     653.31
      1120.        30.     780.43
      1123.        10.     583.74
      1123.        20.     650.77
      1123.        30.     777.15
      1126.        10.     581.53
      1126.        20.     648.26
      1126.        30.     773.89
      1129.        10.     579.35
      1129.        20.     645.76
      1129.        30.     770.67
      1132.        10.     577.18
      1132.        20.     643.28
      1132.        30.     767.47
      1135.        10.     575.03
      1135.        20.     640.83
      1135.        30.      764.3
      1138.        10.      572.9
      1138.        20.     638.39
      1138.        30.     761.15
      1141.        10.     570.79
      1141.        20.     635.98
      1141.        30.     758.03
      1144.        10.     568.69
      1144.        20.     633.58
      1144.        30.     754.94
      1147.        10.     566.61
      1147.        20.     631.21
      1147.        30.     751.87
      1150.        10.     564.55
      1150.        20.     628.85
      1150.        30.     748.82
      1153.        10.      562.5
      1153.        20.     626.52
      1153.        30.      745.8
      1156.        10.     560.47
      1156.        20.      624.2
      1156.        30.     742.81
      1159.        10.     558.46
      1159.        20.      621.9
      1159.        30.     739.83
      1162.        10.     556.46
      1162.        20.     619.62
      1162.        30.     736.89
      1165.        10.     554.48
      1165.        20.     617.36
      1165.        30.     733.96
      1168.        10.     552.52
      1168.        20.     615.12
      1168.        30.     731.07
      1171.        10.     550.57
      1171.        20.      612.9
      1171.        30.     728.19
      1174.        10.     548.64
      1174.        20.     610.69
      1174.        30.     725.34
      1177.        10.     546.72
      1177.        20.     608.51
      1177.        30.     722.51
      1180.        10.     544.82
      1180.        20.     606.34
      1180.        30.      719.7
      1183.        10.     542.93
      1183.        20.     604.18
      1183.        30.     716.91
      1186.        10.     541.06
      1186.        20.     602.05
      1186.        30.     714.15
      1189.        10.      539.2
      1189.        20.     599.93
      1189.        30.     711.41
      1192.        10.     537.36
      1192.        20.     597.83
      1192.        30.     708.69
      1195.        10.     535.53
      1195.        20.     595.75
      1195.        30.     705.99
      1198.        10.     533.72
      1198.        20.     593.68
      1198.        30.     703.31
      1201.        10.     531.92
      1201.        20.     591.63
      1201.        30.     700.66
      1204.        10.     530.14
      1204.        20.      589.6
      1204.        30.     698.02
      1207.        10.     528.36
      1207.        20.     587.58
      1207.        30.     695.41
      1210.        10.     526.61
      1210.        20.     585.58
      1210.        30.     692.81
      1213.        10.     524.86
      1213.        20.     583.59
      1213.        30.     690.24
      1216.        10.     523.14
      1216.        20.     581.62
      1216.        30.     687.69
      1219.        10.     521.42
      1219.        20.     579.66
      1219.        30.     685.15
      1222.        10.     519.72
      1222.        20.     577.72
      1222.        30.     682.64
      1225.        10.     518.03
      1225.        20.      575.8
      1225.        30.     680.14
      1228.        10.     516.35
      1228.        20.     573.89
      1228.        30.     677.67
      1231.        10.     514.69
      1231.        20.       572.
      1231.        30.     675.21
      1234.        10.     513.04
      1234.        20.     570.12
      1234.        30.     672.77
      1237.        10.      511.4
      1237.        20.     568.25
      1237.        30.     670.35
      1240.        10.     509.77
      1240.        20.      566.4
      1240.        30.     667.95
      1243.        10.     508.16
      1243.        20.     564.57
      1243.        30.     665.57
      1246.        10.     506.56
      1246.        20.     562.75
      1246.        30.     663.21
      1249.        10.     504.97
      1249.        20.     560.94
      1249.        30.     660.86
      1252.        10.     503.39
      1252.        20.     559.15
      1252.        30.     658.54
      1255.        10.     501.83
      1255.        20.     557.37
      1255.        30.     656.23
      1258.        10.     500.28
      1258.        20.      555.6
      1258.        30.     653.93
      1261.        10.     498.74
      1261.        20.     553.85
      1261.        30.     651.66
      1264.        10.     497.21
      1264.        20.     552.11
      1264.        30.      649.4
      1267.        10.     495.69
      1267.        20.     550.38
      1267.        30.     647.16
      1270.        10.     494.18
      1270.        20.     548.67
      1270.        30.     644.94
      1273.        10.     492.69
      1273.        20.     546.97
      1273.        30.     642.73
      1276.        10.     491.21
      1276.        20.     545.29
      1276.        30.     640.54
      1279.        10.     489.73
      1279.        20.     543.61
      1279.        30.     638.36
      1282.        10.     488.27
      1282.        20.     541.95
      1282.        30.     636.21
      1285.        10.     486.82
      1285.        20.     540.31
      1285.        30.     634.06
      1288.        10.     485.38
      1288.        20.     538.67
      1288.        30.     631.94
      1291.        10.     483.95
      1291.        20.     537.05
      1291.        30.     629.83
      1294.        10.     482.54
      1294.        20.     535.44
      1294.        30.     627.73
      1297.        10.     481.13
      1297.        20.     533.84
      1297.        30.     625.65
      1300.        10.     479.73
      1300.        20.     532.25
      1300.        30.     623.59
      1303.        10.     478.34
      1303.        20.     530.68
      1303.        30.     621.54
      1306.        10.     476.97
      1306.        20.     529.12
      1306.        30.     619.51
      1309.        10.      475.6
      1309.        20.     527.57
      1309.        30.     617.49
      1312.        10.     474.24
      1312.        20.     526.03
      1312.        30.     615.49
      1315.        10.      472.9
      1315.        20.      524.5
      1315.        30.      613.5
      1318.        10.     471.56
      1318.        20.     522.98
      1318.        30.     611.52
      1321.        10.     470.23
      1321.        20.     521.48
      1321.        30.     609.56
      1324.        10.     468.92
      1324.        20.     519.99
      1324.        30.     607.62
      1327.        10.     467.61
      1327.        20.      518.5
      1327.        30.     605.69
      1330.        10.     466.31
      1330.        20.     517.03
      1330.        30.     603.77
      1333.        10.     465.02
      1333.        20.     515.57
      1333.        30.     601.87
      1336.        10.     463.74
      1336.        20.     514.12
      1336.        30.     599.98
      1339.        10.     462.47
      1339.        20.     512.68
      1339.        30.      598.1
      1342.        10.     461.21
      1342.        20.     511.25
      1342.        30.     596.24
      1345.        10.     459.96
      1345.        20.     509.84
      1345.        30.     594.39
      1348.        10.     458.72
      1348.        20.     508.43
      1348.        30.     592.55
      1351.        10.     457.48
      1351.        20.     507.03
      1351.        30.     590.73
      1354.        10.     456.26
      1354.        20.     505.64
      1354.        30.     588.92
      1357.        10.     455.04
      1357.        20.     504.27
      1357.        30.     587.12
      1360.        10.     453.83
      1360.        20.      502.9
      1360.        30.     585.34
      1363.        10.     452.63
      1363.        20.     501.55
      1363.        30.     583.57
      1366.        10.     451.44
      1366.        20.      500.2
      1366.        30.     581.81
      1369.        10.     450.26
      1369.        20.     498.86
      1369.        30.     580.07
      1372.        10.     449.09
      1372.        20.     497.54
      1372.        30.     578.33
      1375.        10.     447.92
      1375.        20.     496.22
      1375.        30.     576.61
      1378.        10.     446.77
      1378.        20.     494.91
      1378.        30.      574.9
      1381.        10.     445.62
      1381.        20.     493.61
      1381.        30.     573.21
      1384.        10.     444.48
      1384.        20.     492.32
      1384.        30.     571.52
      1387.        10.     443.34
      1387.        20.     491.04
      1387.        30.     569.85
      1390.        10.     442.22
      1390.        20.     489.77
      1390.        30.     568.19
      1393.        10.      441.1
      1393.        20.     488.51
      1393.        30.     566.54
      1396.        10.     439.99
      1396.        20.     487.26
      1396.        30.      564.9
      1399.        10.     438.89
      1399.        20.     486.02
      1399.        30.     563.28
      1402.        10.      437.8
      1402.        20.     484.78
      1402.        30.     561.66
      1405.        10.     436.71
      1405.        20.     483.56
      1405.        30.     560.06
      1408.        10.     435.64
      1408.        20.     482.34
      1408.        30.     558.47
      1411.        10.     434.57
      1411.        20.     481.14
      1411.        30.     556.89
      1414.        10.      433.5
      1414.        20.     479.94
      1414.        30.     555.32
      1417.        10.     432.45
      1417.        20.     478.75
      1417.        30.     553.76
      1420.        10.      431.4
      1420.        20.     477.56
      1420.        30.     552.21
      1423.        10.     430.36
      1423.        20.     476.39
      1423.        30.     550.67
      1426.        10.     429.32
      1426.        20.     475.23
      1426.        30.     549.15
      1429.        10.      428.3
      1429.        20.     474.07
      1429.        30.     547.63
      1432.        10.     427.28
      1432.        20.     472.92
      1432.        30.     546.12
      1435.        10.     426.26
      1435.        20.     471.78
      1435.        30.     544.63
      1438.        10.     425.26
      1438.        20.     470.65
      1438.        30.     543.14
      1441.        10.     424.26
      1441.        20.     469.52
      1441.        30.     541.67
      1444.        10.     423.27
      1444.        20.     468.41
      1444.        30.      540.2
      1447.        10.     422.28
      1447.        20.      467.3
      1447.        30.     538.75
      1450.        10.      421.3
      1450.        20.      466.2
      1450.        30.     537.31
      1453.        10.     420.33
      1453.        20.     465.11
      1453.        30.     535.87
      1456.        10.     419.37
      1456.        20.     464.02
      1456.        30.     534.45
      1459.        10.     418.41
      1459.        20.     462.95
      1459.        30.     533.03
      1462.        10.     417.46
      1462.        20.     461.88
      1462.        30.     531.63
      1465.        10.     416.51
      1465.        20.     460.81
      1465.        30.     530.23
      1468.        10.     415.57
      1468.        20.     459.76
      1468.        30.     528.84
      1471.        10.     414.64
      1471.        20.     458.71
      1471.        30.     527.47
      1474.        10.     413.71
      1474.        20.     457.67
      1474.        30.      526.1
      1477.        10.      412.8
      1477.        20.     456.64
      1477.        30.     524.74
      1480.        10.     411.88
      1480.        20.     455.61
      1480.        30.     523.39
      1483.        10.     410.97
      1483.        20.      454.6
      1483.        30.     522.05
      1486.        10.     410.07
      1486.        20.     453.59
      1486.        30.     520.72
      1489.        10.     409.18
      1489.        20.     452.58
      1489.        30.      519.4
      1492.        10.     408.29
      1492.        20.     451.59
      1492.        30.     518.09
      1495.        10.      407.4
      1495.        20.      450.6
      1495.        30.     516.78
      1498.        10.     406.53
      1498.        20.     449.61
      1498.        30.     515.49
      1501.        10.     405.66
      1501.        20.     448.64
      1501.        30.      514.2
      1504.        10.     404.79
      1504.        20.     447.67
      1504.        30.     512.92
      1507.        10.     403.93
      1507.        20.      446.7
      1507.        30.     511.66
      1510.        10.     403.08
      1510.        20.     445.75
      1510.        30.     510.39
      1513.        10.     402.23
      1513.        20.      444.8
      1513.        30.     509.14
      1516.        10.     401.38
      1516.        20.     443.86
      1516.        30.      507.9
      1519.        10.     400.55
      1519.        20.     442.92
      1519.        30.     506.66
      1522.        10.     399.72
      1522.        20.     441.99
      1522.        30.     505.44
      1525.        10.     398.89
      1525.        20.     441.07
      1525.        30.     504.22
      1528.        10.     398.07
      1528.        20.     440.15
      1528.        30.     503.01
      1531.        10.     397.25
      1531.        20.     439.24
      1531.        30.      501.8
      1534.        10.     396.44
      1534.        20.     438.34
      1534.        30.     500.61
      1537.        10.     395.64
      1537.        20.     437.44
      1537.        30.     499.42
      1540.        10.     394.84
      1540.        20.     436.55
      1540.        30.     498.24
      1543.        10.     394.05
      1543.        20.     435.66
      1543.        30.     497.07
      1546.        10.     393.26
      1546.        20.     434.78
      1546.        30.     495.91
      1549.        10.     392.47
      1549.        20.     433.91
      1549.        30.     494.75
      1552.        10.      391.7
      1552.        20.     433.04
      1552.        30.     493.61
      1555.        10.     390.92
      1555.        20.     432.18
      1555.        30.     492.47
      1558.        10.     390.16
      1558.        20.     431.32
      1558.        30.     491.33
      1561.        10.     389.39
      1561.        20.     430.47
      1561.        30.     490.21
      1564.        10.     388.63
      1564.        20.     429.63
      1564.        30.     489.09
      1567.        10.     387.88
      1567.        20.     428.79
      1567.        30.     487.98
      1570.        10.     387.13
      1570.        20.     427.96
      1570.        30.     486.88
      1573.        10.     386.39
      1573.        20.     427.13
      1573.        30.     485.78
      1576.        10.     385.65
      1576.        20.     426.31
      1576.        30.     484.69
      1579.        10.     384.92
      1579.        20.      425.5
      1579.        30.     483.61
      1582.        10.     384.19
      1582.        20.     424.69
      1582.        30.     482.53
      1585.        10.     383.47
      1585.        20.     423.88
      1585.        30.     481.47
      1588.        10.     382.75
      1588.        20.     423.09
      1588.        30.     480.41
      1591.        10.     382.03
      1591.        20.     422.29
      1591.        30.     479.35
      1594.        10.     381.32
      1594.        20.      421.5
      1594.        30.     478.31
      1597.        10.     380.62
      1597.        20.     420.72
      1597.        30.     477.27
      1600.        10.     379.92
      1600.        20.     419.95
      1600.        30.     476.23
      1603.        10.     379.22
      1603.        20.     419.17
      1603.        30.     475.21
      1606.        10.     378.53
      1606.        20.     418.41
      1606.        30.     474.19
      1609.        10.     377.84
      1609.        20.     417.65
      1609.        30.     473.18
      1612.        10.     377.16
      1612.        20.     416.89
      1612.        30.     472.17
      1615.        10.     376.48
      1615.        20.     416.14
      1615.        30.     471.17
      1618.        10.     375.81
      1618.        20.     415.39
      1618.        30.     470.18
      1621.        10.     375.14
      1621.        20.     414.65
      1621.        30.     469.19
      1624.        10.     374.47
      1624.        20.     413.92
      1624.        30.     468.21
      1627.        10.     373.81
      1627.        20.     413.19
      1627.        30.     467.24
      1630.        10.     373.15
      1630.        20.     412.46
      1630.        30.     466.27
      1633.        10.      372.5
      1633.        20.     411.74
      1633.        30.     465.31
      1636.        10.     371.85
      1636.        20.     411.03
      1636.        30.     464.35
      1639.        10.     371.21
      1639.        20.     410.31
      1639.        30.      463.4
      1642.        10.     370.57
      1642.        20.     409.61
      1642.        30.     462.46
      1645.        10.     369.93
      1645.        20.     408.91
      1645.        30.     461.52
      1648.        10.      369.3
      1648.        20.     408.21
      1648.        30.     460.59
      1651.        10.     368.67
      1651.        20.     407.52
      1651.        30.     459.67
      1654.        10.     368.05
      1654.        20.     406.83
      1654.        30.     458.75
      1657.        10.     367.43
      1657.        20.     406.15
      1657.        30.     457.84
      1660.        10.     366.81
      1660.        20.     405.47
      1660.        30.     456.93
      1663.        10.      366.2
      1663.        20.      404.8
      1663.        30.     456.03
      1666.        10.     365.59
      1666.        20.     404.13
      1666.        30.     455.13
      1669.        10.     364.99
      1669.        20.     403.47
      1669.        30.     454.24
      1672.        10.     364.39
      1672.        20.     402.81
      1672.        30.     453.36
      1675.        10.     363.79
      1675.        20.     402.15
      1675.        30.     452.48
      1678.        10.      363.2
      1678.        20.      401.5
      1678.        30.     451.61
      1681.        10.     362.61
      1681.        20.     400.86
      1681.        30.     450.74
      1684.        10.     362.02
      1684.        20.     400.21
      1684.        30.     449.88
      1687.        10.     361.44
      1687.        20.     399.58
      1687.        30.     449.03
      1690.        10.     360.86
      1690.        20.     398.94
      1690.        30.     448.18
      1693.        10.     360.29
      1693.        20.     398.32
      1693.        30.     447.33
      1696.        10.     359.72
      1696.        20.     397.69
      1696.        30.     446.49
      1699.        10.     359.15
      1699.        20.     397.07
      1699.        30.     445.66
      1702.        10.     358.59
      1702.        20.     396.45
      1702.        30.     444.83
      1705.        10.     358.03
      1705.        20.     395.84
      1705.        30.     444.01
      1708.        10.     357.47
      1708.        20.     395.24
      1708.        30.     443.19
      1711.        10.     356.92
      1711.        20.     394.63
      1711.        30.     442.38
      1714.        10.     356.37
      1714.        20.     394.03
      1714.        30.     441.57
      1717.        10.     355.82
      1717.        20.     393.44
      1717.        30.     440.77
      1720.        10.     355.28
      1720.        20.     392.85
      1720.        30.     439.97
      1723.        10.     354.74
      1723.        20.     392.26
      1723.        30.     439.18
      1726.        10.      354.2
      1726.        20.     391.68
      1726.        30.     438.39
      1729.        10.     353.67
      1729.        20.      391.1
      1729.        30.     437.61
      1732.        10.     353.14
      1732.        20.     390.52
      1732.        30.     436.83
      1735.        10.     352.62
      1735.        20.     389.95
      1735.        30.     436.06
      1738.        10.      352.1
      1738.        20.     389.38
      1738.        30.      435.3
      1741.        10.     351.58
      1741.        20.     388.82
      1741.        30.     434.53
      1744.        10.     351.06
      1744.        20.     388.26
      1744.        30.     433.78
      1747.        10.     350.55
      1747.        20.      387.7
      1747.        30.     433.02
      1750.        10.     350.04
      1750.        20.     387.15
      1750.        30.     432.28
      1753.        10.     349.53
      1753.        20.      386.6
      1753.        30.     431.53
      1756.        10.     349.03
      1756.        20.     386.06
      1756.        30.      430.8
      1759.        10.     348.53
      1759.        20.     385.52
      1759.        30.     430.06
      1762.        10.     348.03
      1762.        20.     384.98
      1762.        30.     429.34
      1765.        10.     347.54
      1765.        20.     384.45
      1765.        30.     428.61
      1768.        10.     347.05
      1768.        20.     383.92
      1768.        30.     427.89
      1771.        10.     346.56
      1771.        20.     383.39
      1771.        30.     427.18
      1774.        10.     346.08
      1774.        20.     382.87
      1774.        30.     426.47
      1777.        10.      345.6
      1777.        20.     382.35
      1777.        30.     425.76
      1780.        10.     345.12
      1780.        20.     381.83
      1780.        30.     425.06
      1783.        10.     344.64
      1783.        20.     381.32
      1783.        30.     424.36
      1786.        10.     344.17
      1786.        20.     380.81
      1786.        30.     423.67
      1789.        10.      343.7
      1789.        20.     380.31
      1789.        30.     422.99
      1792.        10.     343.23
      1792.        20.     379.81
      1792.        30.      422.3
      1795.        10.     342.77
      1795.        20.     379.31
      1795.        30.     421.62
      1798.        10.     342.31
      1798.        20.     378.81
      1798.        30.     420.95
      1801.        10.     341.85
      1801.        20.     378.32
      1801.        30.     420.28
      1804.        10.      341.4
      1804.        20.     377.83
      1804.        30.     419.61
      1807.        10.     340.94
      1807.        20.     377.35
      1807.        30.     418.95
      1810.        10.     340.49
      1810.        20.     376.87
      1810.        30.     418.29
      1813.        10.     340.05
      1813.        20.     376.39
      1813.        30.     417.64
      1816.        10.      339.6
      1816.        20.     375.92
      1816.        30.     416.99
      1819.        10.     339.16
      1819.        20.     375.44
      1819.        30.     416.35
      1822.        10.     338.73
      1822.        20.     374.98
      1822.        30.     415.71
      1825.        10.     338.29
      1825.        20.     374.51
      1825.        30.     415.07
      1828.        10.     337.86
      1828.        20.     374.05
      1828.        30.     414.44
      1831.        10.     337.43
      1831.        20.     373.59
      1831.        30.     413.81
      1834.        10.       337.
      1834.        20.     373.14
      1834.        30.     413.18
      1837.        10.     336.57
      1837.        20.     372.68
      1837.        30.     412.56
      1840.        10.     336.15
      1840.        20.     372.24
      1840.        30.     411.95
      1843.        10.     335.73
      1843.        20.     371.79
      1843.        30.     411.33
      1846.        10.     335.32
      1846.        20.     371.35
      1846.        30.     410.73
      1849.        10.      334.9
      1849.        20.     370.91
      1849.        30.     410.12
      1852.        10.     334.49
      1852.        20.     370.47
      1852.        30.     409.52
      1855.        10.     334.08
      1855.        20.     370.04
      1855.        30.     408.92
      1858.        10.     333.67
      1858.        20.     369.61
      1858.        30.     408.33
      1861.        10.     333.27
      1861.        20.     369.18
      1861.        30.     407.74
      1864.        10.     332.87
      1864.        20.     368.76
      1864.        30.     407.16
      1867.        10.     332.47
      1867.        20.     368.33
      1867.        30.     406.57
      1870.        10.     332.07
      1870.        20.     367.92
      1870.        30.       406.
      1873.        10.     331.68
      1873.        20.      367.5
      1873.        30.     405.42
      1876.        10.     331.29
      1876.        20.     367.09
      1876.        30.     404.85
      1879.        10.      330.9
      1879.        20.     366.68
      1879.        30.     404.28
      1882.        10.     330.51
      1882.        20.     366.27
      1882.        30.     403.72
      1885.        10.     330.13
      1885.        20.     365.87
      1885.        30.     403.16
      1888.        10.     329.74
      1888.        20.     365.47
      1888.        30.     402.61
      1891.        10.     329.36
      1891.        20.     365.07
      1891.        30.     402.05
      1894.        10.     328.99
      1894.        20.     364.67
      1894.        30.      401.5
      1897.        10.     328.61
      1897.        20.     364.28
      1897.        30.     400.96
      1900.        10.     328.24
      1900.        20.     363.89
      1900.        30.     400.42
      1903.        10.     327.87
      1903.        20.      363.5
      1903.        30.     399.88
      1906.        10.      327.5
      1906.        20.     363.12
      1906.        30.     399.34
      1909.        10.     327.14
      1909.        20.     362.74
      1909.        30.     398.81
      1912.        10.     326.77
      1912.        20.     362.36
      1912.        30.     398.29
      1915.        10.     326.41
      1915.        20.     361.98
      1915.        30.     397.76
      1918.        10.     326.05
      1918.        20.     361.61
      1918.        30.     397.24
      1921.        10.      325.7
      1921.        20.     361.24
      1921.        30.     396.72
      1924.        10.     325.34
      1924.        20.     360.87
      1924.        30.     396.21
      1927.        10.     324.99
      1927.        20.     360.51
      1927.        30.      395.7
      1930.        10.     324.64
      1930.        20.     360.14
      1930.        30.     395.19
      1933.        10.     324.29
      1933.        20.     359.78
      1933.        30.     394.69
      1936.        10.     323.95
      1936.        20.     359.42
      1936.        30.     394.19
      1939.        10.      323.6
      1939.        20.     359.07
      1939.        30.     393.69
      1942.        10.     323.26
      1942.        20.     358.72
      1942.        30.     393.19
      1945.        10.     322.92
      1945.        20.     358.37
      1945.        30.      392.7
      1948.        10.     322.58
      1948.        20.     358.02
      1948.        30.     392.21
      1951.        10.     322.25
      1951.        20.     357.68
      1951.        30.     391.73
      1954.        10.     321.92
      1954.        20.     357.33
      1954.        30.     391.25
      1957.        10.     321.58
      1957.        20.     356.99
      1957.        30.     390.77
      1960.        10.     321.26
      1960.        20.     356.66
      1960.        30.     390.29
      1963.        10.     320.93
      1963.        20.     356.32
      1963.        30.     389.82
      1966.        10.      320.6
      1966.        20.     355.99
      1966.        30.     389.35
      1969.        10.     320.28
      1969.        20.     355.66
      1969.        30.     388.89
      1972.        10.     319.96
      1972.        20.     355.33
      1972.        30.     388.42
      1975.        10.     319.64
      1975.        20.     355.01
      1975.        30.     387.96
      1978.        10.     319.33
      1978.        20.     354.68
      1978.        30.     387.51
      1981.        10.     319.01
      1981.        20.     354.36
      1981.        30.     387.05
      1984.        10.      318.7
      1984.        20.     354.05
      1984.        30.      386.6
      1987.        10.     318.39
      1987.        20.     353.73
      1987.        30.     386.16
      1990.        10.     318.08
      1990.        20.     353.42
      1990.        30.     385.71
      1993.        10.     317.77
      1993.        20.     353.11
      1993.        30.     385.27
      1996.        10.     317.47
      1996.        20.      352.8
      1996.        30.     384.83
      1999.        10.     317.16
      1999.        20.     352.49
      1999.        30.     384.39
      2002.        10.     316.86
      2002.        20.     352.19
      2002.        30.     383.96
      2005.        10.     316.56
      2005.        20.     351.89
      2005.        30.     383.53
      2008.        10.     316.27
      2008.        20.     351.59
      2008.        30.      383.1
      2011.        10.     315.97
      2011.        20.     351.29
      2011.        30.     382.68
      2014.        10.     315.68
      2014.        20.       351.
      2014.        30.     382.26
      2017.        10.     315.39
      2017.        20.      350.7
      2017.        30.     381.84
      2020.        10.      315.1
      2020.        20.     350.41
      2020.        30.     381.42
      2023.        10.     314.81
      2023.        20.     350.13
      2023.        30.     381.01
      2026.        10.     314.52
      2026.        20.     349.84
      2026.        30.      380.6
      2029.        10.     314.24
      2029.        20.     349.56
      2029.        30.     380.19
      2032.        10.     313.96
      2032.        20.     349.27
      2032.        30.     379.79
      2035.        10.     313.67
      2035.        20.       349.
      2035.        30.     379.39
      2038.        10.      313.4
      2038.        20.     348.72
      2038.        30.     378.99
      2041.        10.     313.12
      2041.        20.     348.44
      2041.        30.     378.59
      2044.        10.     312.84
      2044.        20.     348.17
      2044.        30.      378.2
      2047.        10.     312.57
      2047.        20.      347.9
      2047.        30.     377.81
      2050.        10.      312.3
      2050.        20.     347.63
      2050.        30.     377.42
      2053.        10.     312.03
      2053.        20.     347.37
      2053.        30.     377.03
      2056.        10.     311.76
      2056.        20.      347.1
      2056.        30.     376.65
      2059.        10.     311.49
      2059.        20.     346.84
      2059.        30.     376.27
      2062.        10.     311.23
      2062.        20.     346.58
      2062.        30.     375.89
      2065.        10.     310.96
      2065.        20.     346.32
      2065.        30.     375.52
      2068.        10.      310.7
      2068.        20.     346.06
      2068.        30.     375.14
      2071.        10.     310.44
      2071.        20.     345.81
      2071.        30.     374.77
      2074.        10.     310.18
      2074.        20.     345.56
      2074.        30.      374.4
      2077.        10.     309.93
      2077.        20.     345.31
      2077.        30.     374.04
      2080.        10.     309.67
      2080.        20.     345.06
      2080.        30.     373.68
      2083.        10.     309.42
      2083.        20.     344.82
      2083.        30.     373.32
      2086.        10.     309.16
      2086.        20.     344.57
      2086.        30.     372.96
      2089.        10.     308.91
      2089.        20.     344.33
      2089.        30.     372.61
      2092.        10.     308.67
      2092.        20.     344.09
      2092.        30.     372.25
      2095.        10.     308.42
      2095.        20.     343.85
      2095.        30.      371.9
      2098.        10.     308.17
      2098.        20.     343.62
      2098.        30.     371.56
      2101.        10.     307.93
      2101.        20.     343.38
      2101.        30.     371.21
      2104.        10.     307.69
      2104.        20.     343.15
      2104.        30.     370.87
      2107.        10.     307.45
      2107.        20.     342.92
      2107.        30.     370.53
      2110.        10.     307.21
      2110.        20.     342.69
      2110.        30.     370.19
      2113.        10.     306.97
      2113.        20.     342.46
      2113.        30.     369.85
      2116.        10.     306.73
      2116.        20.     342.24
      2116.        30.     369.52
      2119.        10.      306.5
      2119.        20.     342.02
      2119.        30.     369.19
      2122.        10.     306.27
      2122.        20.      341.8
      2122.        30.     368.86
      2125.        10.     306.03
      2125.        20.     341.58
      2125.        30.     368.54
      2128.        10.      305.8
      2128.        20.     341.36
      2128.        30.     368.21
      2131.        10.     305.58
      2131.        20.     341.15
      2131.        30.     367.89
      2134.        10.     305.35
      2134.        20.     340.93
      2134.        30.     367.57
      2137.        10.     305.12
      2137.        20.     340.72
      2137.        30.     367.26
      2140.        10.      304.9
      2140.        20.     340.51
      2140.        30.     366.94
      2143.        10.     304.68
      2143.        20.      340.3
      2143.        30.     366.63
      2146.        10.     304.46
      2146.        20.      340.1
      2146.        30.     366.32
      2149.        10.     304.24
      2149.        20.     339.89
      2149.        30.     366.01
      2152.        10.     304.02
      2152.        20.     339.69
      2152.        30.     365.71
      2155.        10.      303.8
      2155.        20.     339.49
      2155.        30.      365.4
      2158.        10.     303.59
      2158.        20.     339.29
      2158.        30.      365.1
      2161.        10.     303.37
      2161.        20.     339.09
      2161.        30.     364.81
      2164.        10.     303.16
      2164.        20.      338.9
      2164.        30.     364.51
      2167.        10.     302.95
      2167.        20.     338.71
      2167.        30.     364.22
      2170.        10.     302.74
      2170.        20.     338.51
      2170.        30.     363.92
      2173.        10.     302.53
      2173.        20.     338.32
      2173.        30.     363.63
      2176.        10.     302.32
      2176.        20.     338.14
      2176.        30.     363.35
      2179.        10.     302.12
      2179.        20.     337.95
      2179.        30.     363.06
      2182.        10.     301.91
      2182.        20.     337.76
      2182.        30.     362.78
      2185.        10.     301.71
      2185.        20.     337.58
      2185.        30.      362.5
      2188.        10.     301.51
      2188.        20.      337.4
      2188.        30.     362.22
      2191.        10.     301.31
      2191.        20.     337.22
      2191.        30.     361.94
      2194.        10.     301.11
      2194.        20.     337.04
      2194.        30.     361.67
      2197.        10.     300.91
      2197.        20.     336.86
      2197.        30.     361.39
      2200.        10.     300.72
      2200.        20.     336.69
      2200.        30.     361.12
      2203.        10.     300.52
      2203.        20.     336.52
      2203.        30.     360.85
      2206.        10.     300.33
      2206.        20.     336.34
      2206.        30.     360.59
      2209.        10.     300.14
      2209.        20.     336.17
      2209.        30.     360.32
      2212.        10.     299.95
      2212.        20.     336.01
      2212.        30.     360.06
      2215.        10.     299.76
      2215.        20.     335.84
      2215.        30.      359.8
      2218.        10.     299.57
      2218.        20.     335.67
      2218.        30.     359.54
      2221.        10.     299.38
      2221.        20.     335.51
      2221.        30.     359.29
      2224.        10.      299.2
      2224.        20.     335.35
      2224.        30.     359.03
      2227.        10.     299.01
      2227.        20.     335.19
      2227.        30.     358.78
      2230.        10.     298.83
      2230.        20.     335.03
      2230.        30.     358.53
      2233.        10.     298.65
      2233.        20.     334.87
      2233.        30.     358.28
      2236.        10.     298.47
      2236.        20.     334.72
      2236.        30.     358.03
      2239.        10.     298.29
      2239.        20.     334.56
      2239.        30.     357.79
      2242.        10.     298.11
      2242.        20.     334.41
      2242.        30.     357.55
      2245.        10.     297.93
      2245.        20.     334.26
      2245.        30.     357.31
      2248.        10.     297.76
      2248.        20.     334.11
      2248.        30.     357.07
      2251.        10.     297.58
      2251.        20.     333.96
      2251.        30.     356.83
      2254.        10.     297.41
      2254.        20.     333.82
      2254.        30.      356.6
      2257.        10.     297.24
      2257.        20.     333.67
      2257.        30.     356.37
      2260.        10.     297.07
      2260.        20.     333.53
      2260.        30.     356.13
      2263.        10.      296.9
      2263.        20.     333.39
      2263.        30.     355.91
      2266.        10.     296.73
      2266.        20.     333.25
      2266.        30.     355.68
      2269.        10.     296.56
      2269.        20.     333.11
      2269.        30.     355.45
      2272.        10.      296.4
      2272.        20.     332.97
      2272.        30.     355.23
      2275.        10.     296.23
      2275.        20.     332.84
      2275.        30.     355.01
      2278.        10.     296.07
      2278.        20.      332.7
      2278.        30.     354.79
      2281.        10.      295.9
      2281.        20.     332.57
      2281.        30.     354.57
      2284.        10.     295.74
      2284.        20.     332.44
      2284.        30.     354.36
      2287.        10.     295.58
      2287.        20.     332.31
      2287.        30.     354.14
      2290.        10.     295.42
      2290.        20.     332.18
      2290.        30.     353.93
      2293.        10.     295.27
      2293.        20.     332.05
      2293.        30.     353.72
      2296.        10.     295.11
      2296.        20.     331.93
      2296.        30.     353.51
      2299.        10.     294.95
      2299.        20.      331.8
      2299.        30.      353.3
      2302.        10.      294.8
      2302.        20.     331.68
      2302.        30.      353.1
      2305.        10.     294.64
      2305.        20.     331.56
      2305.        30.      352.9
      2308.        10.     294.49
      2308.        20.     331.44
      2308.        30.      352.7
      2311.        10.     294.34
      2311.        20.     331.32
      2311.        30.      352.5
      2314.        10.     294.19
      2314.        20.      331.2
      2314.        30.      352.3
      2317.        10.     294.04
      2317.        20.     331.09
      2317.        30.      352.1
      2320.        10.     293.89
      2320.        20.     330.98
      2320.        30.     351.91
      2323.        10.     293.75
      2323.        20.     330.86
      2323.        30.     351.71
      2326.        10.      293.6
      2326.        20.     330.75
      2326.        30.     351.52
      2329.        10.     293.46
      2329.        20.     330.64
      2329.        30.     351.33
      2332.        10.     293.31
      2332.        20.     330.53
      2332.        30.     351.15
      2335.        10.     293.17
      2335.        20.     330.43
      2335.        30.     350.96
      2338.        10.     293.03
      2338.        20.     330.32
      2338.        30.     350.78
      2341.        10.     292.89
      2341.        20.     330.22
      2341.        30.      350.6
      2344.        10.     292.75
      2344.        20.     330.11
      2344.        30.     350.42
      2347.        10.     292.61
      2347.        20.     330.01
      2347.        30.     350.24
      2350.        10.     292.47
      2350.        20.     329.91
      2350.        30.     350.06
      2353.        10.     292.34
      2353.        20.     329.81
      2353.        30.     349.88
      2356.        10.      292.2
      2356.        20.     329.71
      2356.        30.     349.71
      2359.        10.     292.07
      2359.        20.     329.62
      2359.        30.     349.54
      2362.        10.     291.93
      2362.        20.     329.52
      2362.        30.     349.37
      2365.        10.      291.8
      2365.        20.     329.43
      2365.        30.      349.2
      2368.        10.     291.67
      2368.        20.     329.34
      2368.        30.     349.03
      2371.        10.     291.54
      2371.        20.     329.24
      2371.        30.     348.86
      2374.        10.     291.41
      2374.        20.     329.15
      2374.        30.      348.7
      2377.        10.     291.28
      2377.        20.     329.07
      2377.        30.     348.54
      2380.        10.     291.16
      2380.        20.     328.98
      2380.        30.     348.38
      2383.        10.     291.03
      2383.        20.     328.89
      2383.        30.     348.22
      2386.        10.     290.91
      2386.        20.     328.81
      2386.        30.     348.06
      2389.        10.     290.78
      2389.        20.     328.72
      2389.        30.     347.91
      2392.        10.     290.66
      2392.        20.     328.64
      2392.        30.     347.75
      2395.        10.     290.54
      2395.        20.     328.56
      2395.        30.      347.6
      2398.        10.     290.41
      2398.        20.     328.48
      2398.        30.     347.45
      2401.        10.     290.29
      2401.        20.      328.4
      2401.        30.      347.3
      2404.        10.     290.17
      2404.        20.     328.33
      2404.        30.     347.15
      2407.        10.     290.06
      2407.        20.     328.25
      2407.        30.       347.
      2410.        10.     289.94
      2410.        20.     328.18
      2410.        30.     346.86
      2413.        10.     289.82
      2413.        20.      328.1
      2413.        30.     346.71
      2416.        10.     289.71
      2416.        20.     328.03
      2416.        30.     346.57
      2419.        10.     289.59
      2419.        20.     327.96
      2419.        30.     346.43
      2422.        10.     289.48
      2422.        20.     327.89
      2422.        30.     346.29
      2425.        10.     289.36
      2425.        20.     327.82
      2425.        30.     346.16
      2428.        10.     289.25
      2428.        20.     327.75
      2428.        30.     346.02
      2431.        10.     289.14
      2431.        20.     327.69
      2431.        30.     345.89
      2434.        10.     289.03
      2434.        20.     327.62
      2434.        30.     345.75
      2437.        10.     288.92
      2437.        20.     327.56
      2437.        30.     345.62
      2440.        10.     288.81
      2440.        20.      327.5
      2440.        30.     345.49
      2443.        10.     288.71
      2443.        20.     327.43
      2443.        30.     345.36
      2446.        10.      288.6
      2446.        20.     327.37
      2446.        30.     345.24
      2449.        10.      288.5
      2449.        20.     327.32
      2449.        30.     345.11
      2452.        10.     288.39
      2452.        20.     327.26
      2452.        30.     344.99
      2455.        10.     288.29
      2455.        20.      327.2
      2455.        30.     344.87
      2458.        10.     288.18
      2458.        20.     327.15
      2458.        30.     344.74
      2461.        10.     288.08
      2461.        20.     327.09
      2461.        30.     344.63
      2464.        10.     287.98
      2464.        20.     327.04
      2464.        30.     344.51
      2467.        10.     287.88
      2467.        20.     326.99
      2467.        30.     344.39
      2470.        10.     287.78
      2470.        20.     326.94
      2470.        30.     344.28
      2473.        10.     287.68
      2473.        20.     326.89
      2473.        30.     344.16
      2476.        10.     287.58
      2476.        20.     326.84
      2476.        30.     344.05
      2479.        10.     287.49
      2479.        20.     326.79
      2479.        30.     343.94
      2482.        10.     287.39
      2482.        20.     326.74
      2482.        30.     343.83
      2485.        10.      287.3
      2485.        20.      326.7
      2485.        30.     343.72
      2488.        10.      287.2
      2488.        20.     326.66
      2488.        30.     343.61
      2491.        10.     287.11
      2491.        20.     326.61
      2491.        30.     343.51
      2494.        10.     287.02
      2494.        20.     326.57
      2494.        30.     343.41
      2497.        10.     286.92
      2497.        20.     326.53
      2497.        30.      343.3
      2500.        10.     286.83
      2500.        20.     326.49
      2500.        30.      343.2
ENDDATA           1502
ENDSUBENT         1513
SUBENT        O0817003   20180328   20190207   20190201       O066
BIB                  4          6
REACTION   (1-H-2(A,EL)1-H-2,,DA,D,,RECOM)
STATUS     (TABLE) From http://Ibaserver.Physics.Isu.Edu/Sigmabase
COMMENT    - By compiler - The data, which are presented in data
           section, are result of interpolation of experimental
           data.
HISTORY    (20180328A) SD: SF7=D added in REACTION code.
ENDBIB               6
NOCOMMON             0          0
DATA                 3       1500
EN         ANG        DATA
KEV        ADEG       MB/SR
      1003.        10.     506.74
      1003.        20.     584.89
      1003.        30.     582.88
      1006.        10.     506.23
      1006.        20.     583.87
      1006.        30.     582.12
      1009.        10.     505.72
      1009.        20.     582.86
      1009.        30.     581.37
      1012.        10.     505.22
      1012.        20.     581.86
      1012.        30.     580.62
      1015.        10.     504.71
      1015.        20.     580.86
      1015.        30.     579.87
      1018.        10.     504.21
      1018.        20.     579.86
      1018.        30.     579.12
      1021.        10.     503.71
      1021.        20.     578.86
      1021.        30.     578.38
      1024.        10.     503.21
      1024.        20.     577.87
      1024.        30.     577.63
      1027.        10.     502.72
      1027.        20.     576.88
      1027.        30.     576.89
      1030.        10.     502.23
      1030.        20.      575.9
      1030.        30.     576.15
      1033.        10.     501.74
      1033.        20.     574.92
      1033.        30.     575.42
      1036.        10.     501.25
      1036.        20.     573.94
      1036.        30.     574.68
      1039.        10.     500.76
      1039.        20.     572.97
      1039.        30.     573.95
      1042.        10.     500.27
      1042.        20.       572.
      1042.        30.     573.22
      1045.        10.     499.79
      1045.        20.     571.03
      1045.        30.     572.49
      1048.        10.     499.31
      1048.        20.     570.07
      1048.        30.     571.76
      1051.        10.     498.83
      1051.        20.     569.11
      1051.        30.     571.03
      1054.        10.     498.36
      1054.        20.     568.16
      1054.        30.     570.31
      1057.        10.     497.88
      1057.        20.      567.2
      1057.        30.     569.59
      1060.        10.     497.41
      1060.        20.     566.26
      1060.        30.     568.87
      1063.        10.     496.94
      1063.        20.     565.31
      1063.        30.     568.15
      1066.        10.     496.47
      1066.        20.     564.37
      1066.        30.     567.44
      1069.        10.     496.01
      1069.        20.     563.44
      1069.        30.     566.73
      1072.        10.     495.54
      1072.        20.      562.5
      1072.        30.     566.01
      1075.        10.     495.08
      1075.        20.     561.57
      1075.        30.      565.3
      1078.        10.     494.62
      1078.        20.     560.65
      1078.        30.      564.6
      1081.        10.     494.16
      1081.        20.     559.73
      1081.        30.     563.89
      1084.        10.     493.71
      1084.        20.     558.81
      1084.        30.     563.19
      1087.        10.     493.26
      1087.        20.      557.9
      1087.        30.     562.49
      1090.        10.     492.81
      1090.        20.     556.99
      1090.        30.     561.79
      1093.        10.     492.36
      1093.        20.     556.08
      1093.        30.     561.09
      1096.        10.     491.91
      1096.        20.     555.18
      1096.        30.      560.4
      1099.        10.     491.47
      1099.        20.     554.28
      1099.        30.      559.7
      1102.        10.     491.03
      1102.        20.     553.38
      1102.        30.     559.01
      1105.        10.     490.59
      1105.        20.     552.49
      1105.        30.     558.32
      1108.        10.     490.15
      1108.        20.      551.6
      1108.        30.     557.63
      1111.        10.     489.71
      1111.        20.     550.72
      1111.        30.     556.95
      1114.        10.     489.28
      1114.        20.     549.84
      1114.        30.     556.27
      1117.        10.     488.85
      1117.        20.     548.96
      1117.        30.     555.59
      1120.        10.     488.42
      1120.        20.     548.09
      1120.        30.     554.91
      1123.        10.     487.99
      1123.        20.     547.22
      1123.        30.     554.23
      1126.        10.     487.57
      1126.        20.     546.35
      1126.        30.     553.55
      1129.        10.     487.15
      1129.        20.     545.49
      1129.        30.     552.88
      1132.        10.     486.73
      1132.        20.     544.63
      1132.        30.     552.21
      1135.        10.     486.31
      1135.        20.     543.78
      1135.        30.     551.54
      1138.        10.     485.89
      1138.        20.     542.93
      1138.        30.     550.87
      1141.        10.     485.48
      1141.        20.     542.08
      1141.        30.     550.21
      1144.        10.     485.07
      1144.        20.     541.24
      1144.        30.     549.54
      1147.        10.     484.66
      1147.        20.      540.4
      1147.        30.     548.88
      1150.        10.     484.25
      1150.        20.     539.56
      1150.        30.     548.22
      1153.        10.     483.85
      1153.        20.     538.73
      1153.        30.     547.57
      1156.        10.     483.45
      1156.        20.      537.9
      1156.        30.     546.91
      1159.        10.     483.05
      1159.        20.     537.08
      1159.        30.     546.26
      1162.        10.     482.65
      1162.        20.     536.26
      1162.        30.     545.61
      1165.        10.     482.25
      1165.        20.     535.44
      1165.        30.     544.96
      1168.        10.     481.86
      1168.        20.     534.63
      1168.        30.     544.31
      1171.        10.     481.47
      1171.        20.     533.82
      1171.        30.     543.67
      1174.        10.     481.08
      1174.        20.     533.02
      1174.        30.     543.02
      1177.        10.     480.69
      1177.        20.     532.21
      1177.        30.     542.38
      1180.        10.     480.31
      1180.        20.     531.42
      1180.        30.     541.74
      1183.        10.     479.93
      1183.        20.     530.62
      1183.        30.     541.11
      1186.        10.     479.55
      1186.        20.     529.83
      1186.        30.     540.47
      1189.        10.     479.17
      1189.        20.     529.05
      1189.        30.     539.84
      1192.        10.      478.8
      1192.        20.     528.26
      1192.        30.     539.21
      1195.        10.     478.42
      1195.        20.     527.49
      1195.        30.     538.58
      1198.        10.     478.05
      1198.        20.     526.71
      1198.        30.     537.95
      1201.        10.     477.69
      1201.        20.     525.94
      1201.        30.     537.33
      1204.        10.     477.32
      1204.        20.     525.17
      1204.        30.      536.7
      1207.        10.     476.96
      1207.        20.     524.41
      1207.        30.     536.08
      1210.        10.      476.6
      1210.        20.     523.65
      1210.        30.     535.46
      1213.        10.     476.24
      1213.        20.      522.9
      1213.        30.     534.85
      1216.        10.     475.88
      1216.        20.     522.14
      1216.        30.     534.23
      1219.        10.     475.53
      1219.        20.      521.4
      1219.        30.     533.62
      1222.        10.     475.18
      1222.        20.     520.65
      1222.        30.     533.01
      1225.        10.     474.83
      1225.        20.     519.91
      1225.        30.      532.4
      1228.        10.     474.48
      1228.        20.     519.18
      1228.        30.     531.79
      1231.        10.     474.14
      1231.        20.     518.44
      1231.        30.     531.19
      1234.        10.      473.8
      1234.        20.     517.71
      1234.        30.     530.59
      1237.        10.     473.46
      1237.        20.     516.99
      1237.        30.     529.99
      1240.        10.     473.12
      1240.        20.     516.27
      1240.        30.     529.39
      1243.        10.     472.79
      1243.        20.     515.55
      1243.        30.     528.79
      1246.        10.     472.45
      1246.        20.     514.84
      1246.        30.      528.2
      1249.        10.     472.12
      1249.        20.     514.13
      1249.        30.     527.61
      1252.        10.      471.8
      1252.        20.     513.43
      1252.        30.     527.02
      1255.        10.     471.47
      1255.        20.     512.72
      1255.        30.     526.43
      1258.        10.     471.15
      1258.        20.     512.03
      1258.        30.     525.84
      1261.        10.     470.83
      1261.        20.     511.33
      1261.        30.     525.26
      1264.        10.     470.51
      1264.        20.     510.64
      1264.        30.     524.68
      1267.        10.      470.2
      1267.        20.     509.96
      1267.        30.      524.1
      1270.        10.     469.89
      1270.        20.     509.28
      1270.        30.     523.52
      1273.        10.     469.58
      1273.        20.      508.6
      1273.        30.     522.94
      1276.        10.     469.27
      1276.        20.     507.93
      1276.        30.     522.37
      1279.        10.     468.96
      1279.        20.     507.26
      1279.        30.      521.8
      1282.        10.     468.66
      1282.        20.     506.59
      1282.        30.     521.23
      1285.        10.     468.36
      1285.        20.     505.93
      1285.        30.     520.66
      1288.        10.     468.07
      1288.        20.     505.27
      1288.        30.     520.09
      1291.        10.     467.77
      1291.        20.     504.62
      1291.        30.     519.53
      1294.        10.     467.48
      1294.        20.     503.97
      1294.        30.     518.97
      1297.        10.     467.19
      1297.        20.     503.32
      1297.        30.     518.41
      1300.        10.      466.9
      1300.        20.     502.68
      1300.        30.     517.85
      1303.        10.     466.62
      1303.        20.     502.04
      1303.        30.      517.3
      1306.        10.     466.34
      1306.        20.     501.41
      1306.        30.     516.75
      1309.        10.     466.06
      1309.        20.     500.78
      1309.        30.     516.19
      1312.        10.     465.78
      1312.        20.     500.15
      1312.        30.     515.65
      1315.        10.     465.51
      1315.        20.     499.53
      1315.        30.      515.1
      1318.        10.     465.24
      1318.        20.     498.91
      1318.        30.     514.55
      1321.        10.     464.97
      1321.        20.      498.3
      1321.        30.     514.01
      1324.        10.     464.71
      1324.        20.     497.69
      1324.        30.     513.47
      1327.        10.     464.44
      1327.        20.     497.08
      1327.        30.     512.93
      1330.        10.     464.18
      1330.        20.     496.48
      1330.        30.      512.4
      1333.        10.     463.93
      1333.        20.     495.88
      1333.        30.     511.86
      1336.        10.     463.67
      1336.        20.     495.29
      1336.        30.     511.33
      1339.        10.     463.42
      1339.        20.      494.7
      1339.        30.      510.8
      1342.        10.     463.17
      1342.        20.     494.12
      1342.        30.     510.27
      1345.        10.     462.93
      1345.        20.     493.54
      1345.        30.     509.75
      1348.        10.     462.68
      1348.        20.     492.96
      1348.        30.     509.22
      1351.        10.     462.44
      1351.        20.     492.39
      1351.        30.      508.7
      1354.        10.     462.21
      1354.        20.     491.82
      1354.        30.     508.18
      1357.        10.     461.97
      1357.        20.     491.25
      1357.        30.     507.66
      1360.        10.     461.74
      1360.        20.     490.69
      1360.        30.     507.15
      1363.        10.     461.51
      1363.        20.     490.14
      1363.        30.     506.64
      1366.        10.     461.29
      1366.        20.     489.59
      1366.        30.     506.13
      1369.        10.     461.06
      1369.        20.     489.04
      1369.        30.     505.62
      1372.        10.     460.84
      1372.        20.     488.49
      1372.        30.     505.11
      1375.        10.     460.63
      1375.        20.     487.96
      1375.        30.     504.61
      1378.        10.     460.41
      1378.        20.     487.42
      1378.        30.      504.1
      1381.        10.      460.2
      1381.        20.     486.89
      1381.        30.      503.6
      1384.        10.     459.99
      1384.        20.     486.36
      1384.        30.      503.1
      1387.        10.     459.79
      1387.        20.     485.84
      1387.        30.     502.61
      1390.        10.     459.58
      1390.        20.     485.32
      1390.        30.     502.11
      1393.        10.     459.39
      1393.        20.     484.81
      1393.        30.     501.62
      1396.        10.     459.19
      1396.        20.      484.3
      1396.        30.     501.13
      1399.        10.       459.
      1399.        20.     483.79
      1399.        30.     500.65
      1402.        10.     458.81
      1402.        20.     483.29
      1402.        30.     500.16
      1405.        10.     458.62
      1405.        20.      482.8
      1405.        30.     499.68
      1408.        10.     458.44
      1408.        20.     482.31
      1408.        30.      499.2
      1411.        10.     458.26
      1411.        20.     481.82
      1411.        30.     498.72
      1414.        10.     458.08
      1414.        20.     481.33
      1414.        30.     498.24
      1417.        10.     457.91
      1417.        20.     480.86
      1417.        30.     497.77
      1420.        10.     457.74
      1420.        20.     480.38
      1420.        30.      497.3
      1423.        10.     457.57
      1423.        20.     479.91
      1423.        30.     496.83
      1426.        10.     457.41
      1426.        20.     479.45
      1426.        30.     496.36
      1429.        10.     457.24
      1429.        20.     478.98
      1429.        30.     495.89
      1432.        10.     457.09
      1432.        20.     478.53
      1432.        30.     495.43
      1435.        10.     456.93
      1435.        20.     478.08
      1435.        30.     494.97
      1438.        10.     456.78
      1438.        20.     477.63
      1438.        30.     494.51
      1441.        10.     456.64
      1441.        20.     477.18
      1441.        30.     494.05
      1444.        10.     456.49
      1444.        20.     476.75
      1444.        30.      493.6
      1447.        10.     456.35
      1447.        20.     476.31
      1447.        30.     493.15
      1450.        10.     456.22
      1450.        20.     475.88
      1450.        30.      492.7
      1453.        10.     456.08
      1453.        20.     475.46
      1453.        30.     492.25
      1456.        10.     455.96
      1456.        20.     475.04
      1456.        30.      491.8
      1459.        10.     455.83
      1459.        20.     474.62
      1459.        30.     491.36
      1462.        10.     455.71
      1462.        20.     474.21
      1462.        30.     490.92
      1465.        10.     455.59
      1465.        20.      473.8
      1465.        30.     490.48
      1468.        10.     455.47
      1468.        20.      473.4
      1468.        30.     490.04
      1471.        10.     455.36
      1471.        20.     473.01
      1471.        30.     489.61
      1474.        10.     455.26
      1474.        20.     472.61
      1474.        30.     489.18
      1477.        10.     455.15
      1477.        20.     472.23
      1477.        30.     488.75
      1480.        10.     455.05
      1480.        20.     471.84
      1480.        30.     488.32
      1483.        10.     454.96
      1483.        20.     471.47
      1483.        30.      487.9
      1486.        10.     454.87
      1486.        20.     471.09
      1486.        30.     487.47
      1489.        10.     454.78
      1489.        20.     470.73
      1489.        30.     487.05
      1492.        10.      454.7
      1492.        20.     470.36
      1492.        30.     486.63
      1495.        10.     454.62
      1495.        20.       470.
      1495.        30.     486.22
      1498.        10.     454.54
      1498.        20.     469.65
      1498.        30.     485.81
      1501.        10.     454.47
      1501.        20.      469.3
      1501.        30.     485.39
      1504.        10.      454.4
      1504.        20.     468.96
      1504.        30.     484.99
      1507.        10.     454.34
      1507.        20.     468.62
      1507.        30.     484.58
      1510.        10.     454.28
      1510.        20.     468.29
      1510.        30.     484.17
      1513.        10.     454.23
      1513.        20.     467.96
      1513.        30.     483.77
      1516.        10.     454.18
      1516.        20.     467.64
      1516.        30.     483.37
      1519.        10.     454.13
      1519.        20.     467.32
      1519.        30.     482.98
      1522.        10.     454.09
      1522.        20.       467.
      1522.        30.     482.58
      1525.        10.     454.06
      1525.        20.      466.7
      1525.        30.     482.19
      1528.        10.     454.02
      1528.        20.     466.39
      1528.        30.      481.8
      1531.        10.       454.
      1531.        20.      466.1
      1531.        30.     481.41
      1534.        10.     453.97
      1534.        20.     465.81
      1534.        30.     481.03
      1537.        10.     453.96
      1537.        20.     465.52
      1537.        30.     480.65
      1540.        10.     453.94
      1540.        20.     465.24
      1540.        30.     480.27
      1543.        10.     453.94
      1543.        20.     464.96
      1543.        30.     479.89
      1546.        10.     453.93
      1546.        20.     464.69
      1546.        30.     479.51
      1549.        10.     453.93
      1549.        20.     464.43
      1549.        30.     479.14
      1552.        10.     453.94
      1552.        20.     464.17
      1552.        30.     478.77
      1555.        10.     453.95
      1555.        20.     463.91
      1555.        30.      478.4
      1558.        10.     453.97
      1558.        20.     463.67
      1558.        30.     478.04
      1561.        10.     453.99
      1561.        20.     463.42
      1561.        30.     477.68
      1564.        10.     454.02
      1564.        20.     463.19
      1564.        30.     477.32
      1567.        10.     454.05
      1567.        20.     462.96
      1567.        30.     476.96
      1570.        10.     454.09
      1570.        20.     462.73
      1570.        30.     476.61
      1573.        10.     454.14
      1573.        20.     462.51
      1573.        30.     476.25
      1576.        10.     454.19
      1576.        20.      462.3
      1576.        30.      475.9
      1579.        10.     454.24
      1579.        20.     462.09
      1579.        30.     475.56
      1582.        10.     454.31
      1582.        20.     461.89
      1582.        30.     475.21
      1585.        10.     454.37
      1585.        20.     461.69
      1585.        30.     474.87
      1588.        10.     454.45
      1588.        20.      461.5
      1588.        30.     474.53
      1591.        10.     454.53
      1591.        20.     461.32
      1591.        30.      474.2
      1594.        10.     454.61
      1594.        20.     461.15
      1594.        30.     473.86
      1597.        10.      454.7
      1597.        20.     460.97
      1597.        30.     473.53
      1600.        10.      454.8
      1600.        20.     460.81
      1600.        30.      473.2
      1603.        10.     454.91
      1603.        20.     460.65
      1603.        30.     472.88
      1606.        10.     455.02
      1606.        20.      460.5
      1606.        30.     472.55
      1609.        10.     455.14
      1609.        20.     460.36
      1609.        30.     472.23
      1612.        10.     455.26
      1612.        20.     460.22
      1612.        30.     471.92
      1615.        10.     455.39
      1615.        20.     460.09
      1615.        30.      471.6
      1618.        10.     455.53
      1618.        20.     459.96
      1618.        30.     471.29
      1621.        10.     455.68
      1621.        20.     459.84
      1621.        30.     470.98
      1624.        10.     455.83
      1624.        20.     459.73
      1624.        30.     470.68
      1627.        10.     455.99
      1627.        20.     459.63
      1627.        30.     470.38
      1630.        10.     456.16
      1630.        20.     459.53
      1630.        30.     470.08
      1633.        10.     456.33
      1633.        20.     459.44
      1633.        30.     469.78
      1636.        10.     456.52
      1636.        20.     459.36
      1636.        30.     469.48
      1639.        10.     456.71
      1639.        20.     459.29
      1639.        30.     469.19
      1642.        10.     456.91
      1642.        20.     459.22
      1642.        30.     468.91
      1645.        10.     457.12
      1645.        20.     459.16
      1645.        30.     468.62
      1648.        10.     457.33
      1648.        20.     459.11
      1648.        30.     468.34
      1651.        10.     457.56
      1651.        20.     459.06
      1651.        30.     468.06
      1654.        10.     457.79
      1654.        20.     459.03
      1654.        30.     467.79
      1657.        10.     458.04
      1657.        20.       459.
      1657.        30.     467.51
      1660.        10.     458.29
      1660.        20.     458.98
      1660.        30.     467.24
      1663.        10.     458.55
      1663.        20.     458.96
      1663.        30.     466.98
      1666.        10.     458.82
      1666.        20.     458.96
      1666.        30.     466.71
      1669.        10.      459.1
      1669.        20.     458.96
      1669.        30.     466.46
      1672.        10.     459.39
      1672.        20.     458.98
      1672.        30.      466.2
      1675.        10.     459.69
      1675.        20.       459.
      1675.        30.     465.95
      1678.        10.       460.
      1678.        20.     459.03
      1678.        30.      465.7
      1681.        10.     460.32
      1681.        20.     459.07
      1681.        30.     465.45
      1684.        10.     460.66
      1684.        20.     459.12
      1684.        30.     465.21
      1687.        10.       461.
      1687.        20.     459.18
      1687.        30.     464.97
      1690.        10.     461.35
      1690.        20.     459.24
      1690.        30.     464.74
      1693.        10.     461.72
      1693.        20.     459.32
      1693.        30.      464.5
      1696.        10.      462.1
      1696.        20.     459.41
      1696.        30.     464.28
      1699.        10.     462.49
      1699.        20.      459.5
      1699.        30.     464.05
      1702.        10.     462.89
      1702.        20.     459.61
      1702.        30.     463.83
      1705.        10.      463.3
      1705.        20.     459.73
      1705.        30.     463.62
      1708.        10.     463.73
      1708.        20.     459.85
      1708.        30.      463.4
      1711.        10.     464.17
      1711.        20.     459.99
      1711.        30.     463.19
      1714.        10.     464.63
      1714.        20.     460.14
      1714.        30.     462.99
      1717.        10.      465.1
      1717.        20.      460.3
      1717.        30.     462.79
      1720.        10.     465.58
      1720.        20.     460.47
      1720.        30.     462.59
      1723.        10.     466.08
      1723.        20.     460.66
      1723.        30.      462.4
      1726.        10.     466.59
      1726.        20.     460.85
      1726.        30.     462.21
      1729.        10.     467.12
      1729.        20.     461.06
      1729.        30.     462.03
      1732.        10.     467.67
      1732.        20.     461.28
      1732.        30.     461.85
      1735.        10.     468.23
      1735.        20.     461.51
      1735.        30.     461.67
      1738.        10.      468.8
      1738.        20.     461.76
      1738.        30.      461.5
      1741.        10.      469.4
      1741.        20.     462.01
      1741.        30.     461.34
      1744.        10.     470.01
      1744.        20.     462.28
      1744.        30.     461.17
      1747.        10.     470.64
      1747.        20.     462.57
      1747.        30.     461.02
      1750.        10.     471.29
      1750.        20.     462.87
      1750.        30.     460.87
      1753.        10.     471.96
      1753.        20.     463.18
      1753.        30.     460.72
      1756.        10.     472.65
      1756.        20.     463.51
      1756.        30.     460.58
      1759.        10.     473.35
      1759.        20.     463.85
      1759.        30.     460.44
      1762.        10.     474.08
      1762.        20.     464.21
      1762.        30.     460.31
      1765.        10.     474.83
      1765.        20.     464.59
      1765.        30.     460.18
      1768.        10.     475.61
      1768.        20.     464.98
      1768.        30.     460.06
      1771.        10.      476.4
      1771.        20.     465.39
      1771.        30.     459.95
      1774.        10.     477.22
      1774.        20.     465.81
      1774.        30.     459.84
      1777.        10.     478.07
      1777.        20.     466.25
      1777.        30.     459.74
      1780.        10.     478.94
      1780.        20.     466.71
      1780.        30.     459.64
      1783.        10.     479.83
      1783.        20.     467.19
      1783.        30.     459.55
      1786.        10.     480.75
      1786.        20.     467.69
      1786.        30.     459.46
      1789.        10.      481.7
      1789.        20.     468.21
      1789.        30.     459.38
      1792.        10.     482.68
      1792.        20.     468.75
      1792.        30.     459.31
      1795.        10.     483.68
      1795.        20.     469.31
      1795.        30.     459.25
      1798.        10.     484.72
      1798.        20.     469.89
      1798.        30.     459.19
      1801.        10.     485.79
      1801.        20.     470.49
      1801.        30.     459.14
      1804.        10.     486.89
      1804.        20.     471.11
      1804.        30.     459.09
      1807.        10.     488.03
      1807.        20.     471.76
      1807.        30.     459.05
      1810.        10.      489.2
      1810.        20.     472.44
      1810.        30.     459.03
      1813.        10.      490.4
      1813.        20.     473.13
      1813.        30.       459.
      1816.        10.     491.65
      1816.        20.     473.86
      1816.        30.     458.99
      1819.        10.     492.93
      1819.        20.     474.61
      1819.        30.     458.99
      1822.        10.     494.25
      1822.        20.     475.39
      1822.        30.     458.99
      1825.        10.     495.61
      1825.        20.     476.19
      1825.        30.       459.
      1828.        10.     497.02
      1828.        20.     477.03
      1828.        30.     459.02
      1831.        10.     498.47
      1831.        20.     477.89
      1831.        30.     459.06
      1834.        10.     499.97
      1834.        20.     478.79
      1834.        30.      459.1
      1837.        10.     501.52
      1837.        20.     479.72
      1837.        30.     459.15
      1840.        10.     503.11
      1840.        20.     480.68
      1840.        30.     459.21
      1843.        10.     504.76
      1843.        20.     481.68
      1843.        30.     459.28
      1846.        10.     506.46
      1846.        20.     482.72
      1846.        30.     459.36
      1849.        10.     508.22
      1849.        20.     483.79
      1849.        30.     459.46
      1852.        10.     510.04
      1852.        20.     484.91
      1852.        30.     459.56
      1855.        10.     511.92
      1855.        20.     486.06
      1855.        30.     459.68
      1858.        10.     513.86
      1858.        20.     487.25
      1858.        30.     459.81
      1861.        10.     515.87
      1861.        20.     488.49
      1861.        30.     459.95
      1864.        10.     517.95
      1864.        20.     489.78
      1864.        30.     460.11
      1867.        10.     520.11
      1867.        20.     491.11
      1867.        30.     460.28
      1870.        10.     522.33
      1870.        20.      492.5
      1870.        30.     460.47
      1873.        10.     524.64
      1873.        20.     493.93
      1873.        30.     460.67
      1876.        10.     527.03
      1876.        20.     495.42
      1876.        30.     460.89
      1879.        10.     529.51
      1879.        20.     496.97
      1879.        30.     461.12
      1882.        10.     532.07
      1882.        20.     498.57
      1882.        30.     461.38
      1885.        10.     534.73
      1885.        20.     500.24
      1885.        30.     461.65
      1888.        10.     537.49
      1888.        20.     501.97
      1888.        30.     461.93
      1891.        10.     540.36
      1891.        20.     503.77
      1891.        30.     462.24
      1894.        10.     543.33
      1894.        20.     505.64
      1894.        30.     462.57
      1897.        10.     546.42
      1897.        20.     507.59
      1897.        30.     462.92
      1900.        10.     549.62
      1900.        20.     509.61
      1900.        30.     463.29
      1903.        10.     552.96
      1903.        20.     511.71
      1903.        30.     463.69
      1906.        10.     556.42
      1906.        20.      513.9
      1906.        30.     464.11
      1909.        10.     560.03
      1909.        20.     516.18
      1909.        30.     464.56
      1912.        10.     563.78
      1912.        20.     518.55
      1912.        30.     465.03
      1915.        10.     567.69
      1915.        20.     521.02
      1915.        30.     465.53
      1918.        10.     571.75
      1918.        20.      523.6
      1918.        30.     466.06
      1921.        10.       576.
      1921.        20.     526.29
      1921.        30.     466.63
      1924.        10.     580.42
      1924.        20.     529.09
      1924.        30.     467.22
      1927.        10.     585.03
      1927.        20.     532.02
      1927.        30.     467.85
      1930.        10.     589.85
      1930.        20.     535.08
      1930.        30.     468.52
      1933.        10.     594.88
      1933.        20.     538.27
      1933.        30.     469.23
      1936.        10.     600.14
      1936.        20.     541.61
      1936.        30.     469.98
      1939.        10.     605.64
      1939.        20.      545.1
      1939.        30.     470.77
      1942.        10.      611.4
      1942.        20.     548.76
      1942.        30.      471.6
      1945.        10.     617.42
      1945.        20.     552.58
      1945.        30.     472.49
      1948.        10.     623.73
      1948.        20.      556.6
      1948.        30.     473.43
      1951.        10.     630.35
      1951.        20.      560.8
      1951.        30.     474.42
      1954.        10.      637.3
      1954.        20.     565.21
      1954.        30.     475.47
      1957.        10.     644.59
      1957.        20.     569.85
      1957.        30.     476.58
      1960.        10.     652.25
      1960.        20.     574.72
      1960.        30.     477.76
      1963.        10.     660.31
      1963.        20.     579.84
      1963.        30.     479.01
      1966.        10.     668.79
      1966.        20.     585.22
      1966.        30.     480.33
      1969.        10.     677.72
      1969.        20.      590.9
      1969.        30.     481.74
      1972.        10.     687.13
      1972.        20.     596.88
      1972.        30.     483.23
      1975.        10.     697.06
      1975.        20.     603.19
      1975.        30.     484.81
      1978.        10.     707.55
      1978.        20.     609.85
      1978.        30.     486.49
      1981.        10.     718.63
      1981.        20.     616.89
      1981.        30.     488.27
      1984.        10.     730.36
      1984.        20.     624.33
      1984.        30.     490.17
      1987.        10.     742.78
      1987.        20.     632.22
      1987.        30.     492.19
      1990.        10.     755.94
      1990.        20.     640.57
      1990.        30.     494.34
      1993.        10.     769.91
      1993.        20.     649.44
      1993.        30.     496.64
      1996.        10.     784.74
      1996.        20.     658.86
      1996.        30.     499.08
      1999.        10.     800.52
      1999.        20.     668.87
      1999.        30.      501.7
      2002.        10.     817.32
      2002.        20.     679.53
      2002.        30.     504.49
      2005.        10.     835.23
      2005.        20.      690.9
      2005.        30.     507.48
      2008.        10.     854.34
      2008.        20.     703.02
      2008.        30.     510.68
      2011.        10.     874.76
      2011.        20.     715.98
      2011.        30.     514.11
      2014.        10.     896.61
      2014.        20.     729.84
      2014.        30.     517.79
      2017.        10.     920.02
      2017.        20.     744.69
      2017.        30.     521.75
      2020.        10.     945.14
      2020.        20.     760.63
      2020.        30.       526.
      2023.        10.     972.12
      2023.        20.     777.75
      2023.        30.     530.59
      2026.        10.    1001.15
      2026.        20.     796.17
      2026.        30.     535.54
      2029.        10.    1032.43
      2029.        20.     816.02
      2029.        30.     540.88
      2032.        10.    1066.19
      2032.        20.     837.44
      2032.        30.     546.66
      2035.        10.    1102.68
      2035.        20.      860.6
      2035.        30.     552.92
      2038.        10.    1142.17
      2038.        20.     885.68
      2038.        30.     559.72
      2041.        10.      1185.
      2041.        20.     912.88
      2041.        30.      567.1
      2044.        10.    1231.52
      2044.        20.     942.43
      2044.        30.     575.13
      2047.        10.    1282.12
      2047.        20.     974.59
      2047.        30.     583.89
      2050.        10.    1337.26
      2050.        20.    1009.65
      2050.        30.     593.46
      2053.        10.    1397.44
      2053.        20.    1047.93
      2053.        30.     603.92
      2056.        10.    1463.23
      2056.        20.    1089.81
      2056.        30.     615.37
      2059.        10.    1535.26
      2059.        20.     1135.7
      2059.        30.     627.94
      2062.        10.    1614.25
      2062.        20.    1186.05
      2062.        30.     641.75
      2065.        10.    1700.97
      2065.        20.    1241.39
      2065.        30.     656.95
      2068.        10.    1796.31
      2068.        20.    1302.29
      2068.        30.     673.69
      2071.        10.    1901.21
      2071.        20.    1369.38
      2071.        30.     692.16
      2074.        10.    2016.71
      2074.        20.    1443.35
      2074.        30.     712.54
      2077.        10.    2143.94
      2077.        20.    1524.95
      2077.        30.     735.04
      2080.        10.    2284.02
      2080.        20.    1614.95
      2080.        30.     759.88
      2083.        10.    2438.13
      2083.        20.    1714.15
      2083.        30.     787.29
      2086.        10.    2607.37
      2086.        20.    1823.31
      2086.        30.     817.48
      2089.        10.    2792.68
      2089.        20.    1943.13
      2089.        30.     850.65
      2092.        10.    2994.72
      2092.        20.    2074.09
      2092.        30.     886.94
      2095.        10.    3213.65
      2095.        20.    2216.41
      2095.        30.     926.41
      2098.        10.    3448.87
      2098.        20.    2369.78
      2098.        30.     968.99
      2101.        10.    3698.71
      2101.        20.    2533.23
      2101.        30.    1014.41
      2104.        10.    3960.04
      2104.        20.     2704.8
      2104.        30.    1062.13
      2107.        10.    4227.92
      2107.        20.    2881.32
      2107.        30.    1111.27
      2110.        10.    4495.25
      2110.        20.    3058.12
      2110.        30.    1160.54
      2113.        10.    4752.67
      2113.        20.    3229.02
      2113.        30.    1208.19
      2116.        10.    4988.85
      2116.        20.    3386.36
      2116.        30.    1252.09
      2119.        10.    5191.18
      2119.        20.    3521.61
      2119.        30.    1289.84
      2122.        10.    5347.08
      2122.        20.    3626.12
      2122.        30.      1319.
      2125.        10.    5445.67
      2125.        20.     3692.4
      2125.        30.    1337.45
      2128.        10.    5479.52
      2128.        20.    3715.29
      2128.        30.    1343.76
      2131.        10.    5445.98
      2131.        20.    3692.97
      2131.        30.    1337.39
      2134.        10.     5347.7
      2134.        20.    3627.27
      2134.        30.    1318.87
      2137.        10.     5192.1
      2137.        20.    3523.33
      2137.        30.    1289.65
      2140.        10.    4990.08
      2140.        20.    3388.67
      2140.        30.    1251.84
      2143.        10.     4754.2
      2143.        20.     3231.9
      2143.        30.    1207.87
      2146.        10.    4497.09
      2146.        20.    3061.58
      2146.        30.    1160.15
      2149.        10.    4230.07
      2149.        20.    2885.35
      2149.        30.    1110.83
      2152.        10.     3962.5
      2152.        20.    2709.41
      2152.        30.    1061.62
      2155.        10.    3701.47
      2155.        20.    2538.42
      2155.        30.    1013.84
      2158.        10.    3451.94
      2158.        20.    2375.54
      2158.        30.     968.35
      2161.        10.    3217.02
      2161.        20.    2222.75
      2161.        30.     925.71
      2164.        10.     2998.4
      2164.        20.    2081.01
      2164.        30.     886.18
      2167.        10.    2796.67
      2167.        20.    1950.62
      2167.        30.     849.82
      2170.        10.    2611.66
      2170.        20.    1831.38
      2170.        30.     816.59
      2173.        10.    2442.73
      2173.        20.     1722.8
      2173.        30.     786.34
      2176.        10.    2288.93
      2176.        20.    1624.17
      2176.        30.     758.86
      2179.        10.    2149.15
      2179.        20.    1534.75
      2179.        30.     733.96
      2182.        10.    2022.24
      2182.        20.    1453.73
      2182.        30.     711.39
      2185.        10.    1907.04
      2185.        20.    1380.33
      2185.        30.     690.95
      2188.        10.    1802.44
      2188.        20.    1313.82
      2188.        30.     672.42
      2191.        10.    1707.42
      2191.        20.     1253.5
      2191.        30.     655.61
      2194.        10.      1621.
      2194.        20.    1198.73
      2194.        30.     640.35
      2197.        10.    1542.32
      2197.        20.    1148.95
      2197.        30.     626.48
      2200.        10.     1470.6
      2200.        20.    1103.65
      2200.        30.     613.84
      2203.        10.    1405.11
      2203.        20.    1062.34
      2203.        30.     602.32
      2206.        10.    1345.24
      2206.        20.    1024.64
      2206.        30.      591.8
      2209.        10.    1290.41
      2209.        20.     990.15
      2209.        30.     582.17
      2212.        10.    1240.11
      2212.        20.     958.57
      2212.        30.     573.35
      2215.        10.     1193.9
      2215.        20.      929.6
      2215.        30.     565.25
      2218.        10.    1151.38
      2218.        20.     902.97
      2218.        30.     557.81
      2221.        10.    1112.19
      2221.        20.     878.47
      2221.        30.     550.95
      2224.        10.    1076.01
      2224.        20.     855.89
      2224.        30.     544.62
      2227.        10.    1042.56
      2227.        20.     835.04
      2227.        30.     538.78
      2230.        10.    1011.58
      2230.        20.     815.77
      2230.        30.     533.37
      2233.        10.     982.86
      2233.        20.     797.92
      2233.        30.     528.36
      2236.        10.     956.18
      2236.        20.     781.38
      2236.        30.     523.71
      2239.        10.     931.38
      2239.        20.     766.02
      2239.        30.     519.39
      2242.        10.     908.27
      2242.        20.     751.75
      2242.        30.     515.37
      2245.        10.     886.73
      2245.        20.     738.46
      2245.        30.     511.62
      2248.        10.     866.62
      2248.        20.     726.08
      2248.        30.     508.13
      2251.        10.     847.81
      2251.        20.     714.53
      2251.        30.     504.86
      2254.        10.     830.21
      2254.        20.     703.74
      2254.        30.     501.81
      2257.        10.     813.72
      2257.        20.     693.66
      2257.        30.     498.96
      2260.        10.     798.25
      2260.        20.     684.22
      2260.        30.     496.28
      2263.        10.     783.72
      2263.        20.     675.38
      2263.        30.     493.77
      2266.        10.     770.06
      2266.        20.     667.09
      2266.        30.     491.41
      2269.        10.      757.2
      2269.        20.     659.31
      2269.        30.     489.19
      2272.        10.     745.09
      2272.        20.       652.
      2272.        30.     487.11
      2275.        10.     733.67
      2275.        20.     645.13
      2275.        30.     485.15
      2278.        10.     722.89
      2278.        20.     638.67
      2278.        30.      483.3
      2281.        10.     712.71
      2281.        20.     632.58
      2281.        30.     481.56
      2284.        10.     703.09
      2284.        20.     626.85
      2284.        30.     479.91
      2287.        10.     693.98
      2287.        20.     621.45
      2287.        30.     478.36
      2290.        10.     685.36
      2290.        20.     616.35
      2290.        30.     476.89
      2293.        10.     677.19
      2293.        20.     611.54
      2293.        30.      475.5
      2296.        10.     669.44
      2296.        20.       607.
      2296.        30.     474.19
      2299.        10.     662.08
      2299.        20.      602.7
      2299.        30.     472.95
      2302.        10.      655.1
      2302.        20.     598.65
      2302.        30.     471.77
      2305.        10.     648.46
      2305.        20.     594.81
      2305.        30.     470.66
      2308.        10.     642.15
      2308.        20.     591.18
      2308.        30.      469.6
      2311.        10.     636.14
      2311.        20.     587.75
      2311.        30.      468.6
      2314.        10.     630.42
      2314.        20.      584.5
      2314.        30.     467.65
      2317.        10.     624.98
      2317.        20.     581.42
      2317.        30.     466.75
      2320.        10.     619.78
      2320.        20.      578.5
      2320.        30.      465.9
      2323.        10.     614.83
      2323.        20.     575.74
      2323.        30.     465.09
      2326.        10.     610.11
      2326.        20.     573.12
      2326.        30.     464.32
      2329.        10.      605.6
      2329.        20.     570.64
      2329.        30.     463.58
      2332.        10.     601.29
      2332.        20.     568.29
      2332.        30.     462.89
      2335.        10.     597.17
      2335.        20.     566.06
      2335.        30.     462.23
      2338.        10.     593.24
      2338.        20.     563.95
      2338.        30.      461.6
      2341.        10.     589.48
      2341.        20.     561.95
      2341.        30.     461.01
      2344.        10.     585.88
      2344.        20.     560.05
      2344.        30.     460.44
      2347.        10.     582.43
      2347.        20.     558.26
      2347.        30.      459.9
      2350.        10.     579.13
      2350.        20.     556.56
      2350.        30.     459.39
      2353.        10.     575.97
      2353.        20.     554.94
      2353.        30.     458.91
      2356.        10.     572.95
      2356.        20.     553.42
      2356.        30.     458.45
      2359.        10.     570.05
      2359.        20.     551.97
      2359.        30.     458.01
      2362.        10.     567.27
      2362.        20.      550.6
      2362.        30.      457.6
      2365.        10.      564.6
      2365.        20.     549.31
      2365.        30.     457.21
      2368.        10.     562.05
      2368.        20.     548.09
      2368.        30.     456.84
      2371.        10.     559.59
      2371.        20.     546.93
      2371.        30.     456.48
      2374.        10.     557.24
      2374.        20.     545.84
      2374.        30.     456.15
      2377.        10.     554.98
      2377.        20.     544.81
      2377.        30.     455.84
      2380.        10.     552.81
      2380.        20.     543.84
      2380.        30.     455.54
      2383.        10.     550.73
      2383.        20.     542.93
      2383.        30.     455.26
      2386.        10.     548.73
      2386.        20.     542.07
      2386.        30.     454.99
      2389.        10.     546.81
      2389.        20.     541.26
      2389.        30.     454.74
      2392.        10.     544.96
      2392.        20.     540.51
      2392.        30.      454.5
      2395.        10.     543.19
      2395.        20.      539.8
      2395.        30.     454.28
      2398.        10.     541.49
      2398.        20.     539.13
      2398.        30.     454.08
      2401.        10.     539.85
      2401.        20.     538.51
      2401.        30.     453.88
      2404.        10.     538.28
      2404.        20.     537.94
      2404.        30.      453.7
      2407.        10.     536.77
      2407.        20.      537.4
      2407.        30.     453.53
      2410.        10.     535.31
      2410.        20.      536.9
      2410.        30.     453.37
      2413.        10.     533.92
      2413.        20.     536.45
      2413.        30.     453.23
      2416.        10.     532.57
      2416.        20.     536.02
      2416.        30.     453.09
      2419.        10.     531.29
      2419.        20.     535.63
      2419.        30.     452.97
      2422.        10.     530.05
      2422.        20.     535.28
      2422.        30.     452.85
      2425.        10.     528.85
      2425.        20.     534.96
      2425.        30.     452.75
      2428.        10.     527.71
      2428.        20.     534.67
      2428.        30.     452.65
      2431.        10.     526.61
      2431.        20.     534.41
      2431.        30.     452.57
      2434.        10.     525.55
      2434.        20.     534.18
      2434.        30.     452.49
      2437.        10.     524.54
      2437.        20.     533.98
      2437.        30.     452.42
      2440.        10.     523.56
      2440.        20.     533.81
      2440.        30.     452.36
      2443.        10.     522.63
      2443.        20.     533.66
      2443.        30.     452.31
      2446.        10.     521.73
      2446.        20.     533.54
      2446.        30.     452.27
      2449.        10.     520.87
      2449.        20.     533.44
      2449.        30.     452.24
      2452.        10.     520.04
      2452.        20.     533.37
      2452.        30.     452.21
      2455.        10.     519.24
      2455.        20.     533.32
      2455.        30.     452.19
      2458.        10.     518.48
      2458.        20.     533.29
      2458.        30.     452.18
      2461.        10.     517.75
      2461.        20.     533.29
      2461.        30.     452.17
      2464.        10.     517.05
      2464.        20.     533.31
      2464.        30.     452.17
      2467.        10.     516.38
      2467.        20.     533.35
      2467.        30.     452.18
      2470.        10.     515.74
      2470.        20.     533.41
      2470.        30.      452.2
      2473.        10.     515.12
      2473.        20.     533.48
      2473.        30.     452.22
      2476.        10.     514.54
      2476.        20.     533.58
      2476.        30.     452.25
      2479.        10.     513.97
      2479.        20.      533.7
      2479.        30.     452.28
      2482.        10.     513.44
      2482.        20.     533.83
      2482.        30.     452.32
      2485.        10.     512.92
      2485.        20.     533.98
      2485.        30.     452.37
      2488.        10.     512.44
      2488.        20.     534.15
      2488.        30.     452.42
      2491.        10.     511.97
      2491.        20.     534.34
      2491.        30.     452.47
      2494.        10.     511.53
      2494.        20.     534.54
      2494.        30.     452.54
      2497.        10.      511.1
      2497.        20.     534.76
      2497.        30.      452.6
      2500.        10.      510.7
      2500.        20.     534.99
      2500.        30.     452.68
ENDDATA           1502
ENDSUBENT         1513
SUBENT        O0817004   20180328   20190207   20190201       O066
BIB                  7         12
REACTION   (1-H-2(A,EL)1-H-2,,DA,D)
ANALYSIS   (NTRTH)
SAMPLE     87.2 nanometers film of perdeuterated polystyrene.
MONITOR    (83-BI-209(A,EL)83-BI-209,,DA) The cross section was
           assumed as Rutherford cross section.
ERR-ANALYS (ERR-T) The Uncertainty includes:
           (ERR-1) Uncertainty of deuterium atoms - 1%,
           (ERR-2) Uncertainty of bismuth content - 1%
           (ANG-ERR) Uncertainty of solid angle     - 0.2 degree.
STATUS     (TABLE) Table 3 from Nucl.Inst.Meth.B83, p.47 (1993)
HISTORY    (20180328A) SD: SF7=D added in REACTION code.
           ERR-ANALYS was updated. ANALYSIS added.
ENDBIB              12
COMMON               3          3
ANG-ERR    ERR-1      ERR-2
ADEG       PER-CENT   PER-CENT
  0.2        1.          1.
ENDCOMMON            3
DATA                 4          3
EN         ANG        DATA       ERR-T
MEV        ADEG       MB/SR      PER-CENT
      1.767        30.       460.         4.
      1.739        20.       461.         5.
      1.687        10.       461.         7.
ENDDATA              5
ENDSUBENT           26
SUBENT        O0817005   20180328   20190207   20190201       O066
BIB                  5         11
REACTION  R((1-H-1(A,EL)1-H-1,,DA,P)/
           (1-H-2(A,EL)1-H-2,,DA,D))
          S(1-H-1(A,EL)1-H-1,,DA,P)
SAMPLE     110 nanometers film of perdeuterated polystyrene.
ERR-ANALYS (ERR-T) The uncertainty includes:
           (ERR-1) Uncertainty of deuterium atoms - 1%,
           (ERR-2) Uncertainty of hydrogen content - 1%
STATUS     (TABLE) Table 3 from Nucl.Inst.Meth.B83, p.47 (1993)
          S(DEP,O0817004)
HISTORY    (20180328A) SD: SF7=P (num.+(S)); SF7=D (denom.) added
           in REACTION code. ERR-ANALYS was updated.
ENDBIB              11
COMMON               2          3
ERR-1      ERR-2
PER-CENT   PER-CENT
  1.          1.
ENDCOMMON            3
DATA                 6          3
EN         ANG        DATA      SERR-T      DATA      RERR-T     R
MEV        ADEG       MB/SR      PER-CENT   NO-DIM     PER-CENT
      1.767        30.       429.         6.      0.933         2.
      1.739        20.       389.         7.      0.844         2.
      1.687        10.       361.        9.5      0.784        2.5
ENDDATA              5
ENDSUBENT           25
SUBENT        O0817006   20180328   20190207   20190201       O066
BIB                  6         10
REACTION   (6-C-12(D,P)6-C-13,,DA)
MONITOR    (83-BI-209(A,EL)83-BI-209,,DA) The cross section was
           assumed as Rutherford cross section.
ANALYSIS   (NTRTH)
ERR-ANALYS (ERR-T) The Uncertainty includes:
           (ERR-1) Uncertainty of deuterium atoms - 1%,
           (ERR-2) Uncertainty of bismuth content - 1%
           (ANG-ERR) Uncertainty of solid angle     - 0.2 degree.
STATUS     (TABLE) Table 7 from Nucl.Inst.Meth.B83, p.47 (1993)
HISTORY    (20180328U) SD: ERR-ANALYS was updated. ANALYSIS added.
ENDBIB              10
COMMON               3          3
ANG-ERR    ERR-1      ERR-2
ADEG       PER-CENT   PER-CENT
  0.2        1.          1.
ENDCOMMON            3
DATA                 4          1
EN         ANG        DATA       ERR-T
MEV        ADEG       MB/SR      MB/SR
      0.968       150.       29.5        1.2
ENDDATA              3
ENDSUBENT           22
SUBENT        O0817007   20180328   20190207   20190201       O066
BIB                  6         12
REACTION   (8-O-16(D,P)8-O-17,PAR,DA)
MONITOR    (73-TA-181(P,EL)73-TA-181,,DA) The cross section was
           assumed as Rutherford cross section.
ANALYSIS   (NTRTH)
ERR-ANALYS (ERR-T) The Uncertainty includes:
            * Uncertainty of C(d,p) cross section
           (ERR-1) Uncertainty of deuterium atoms - 1%,
           (ANG-ERR) Uncertainty of solid angle     - 0.2 degree.
STATUS     (TABLE) Table 7 from Nucl.Inst.Meth.B83, p.47 (1993)
           (DEP,O0817006)
HISTORY    (20180328U) SD: ERR-ANALYS was updated. E-EXC -> E-LVL.
           ANALYSIS added.
ENDBIB              12
COMMON               3          3
E-LVL      ANG-ERR    ERR-1
MEV        ADEG       PER-CENT
      0.871  0.2        1.
ENDCOMMON            3
DATA                 4          1
EN         ANG        DATA       ERR-T
MEV        ADEG       MB/SR      MB/SR
      0.857       150.        5.3        0.4
ENDDATA              3
ENDSUBENT           24
SUBENT        O0817008   20180328   20190207   20190201       O066
BIB                  4          7
REACTION   (1-H-2(D,P)1-H-3,,DA)
ERR-ANALYS (ERR-T) The Uncertainty includes:
            * Uncertainty of C(d,p) cross section
           (ERR-1) Uncertainty of deuterium atoms - 1%,
           (ANG-ERR) Uncertainty of solid angle     - 0.2 degree.
STATUS     (TABLE) Table 7 from Nucl.Inst.Meth.B83, p.47 (1993)
HISTORY    (20180328U) SD: ERR-ANALYS was updated.
ENDBIB               7
COMMON               2          3
ANG-ERR    ERR-1
ADEG       PER-CENT
  0.2        1.
ENDCOMMON            3
DATA                 4          1
EN         ANG        DATA       ERR-T
MEV        ADEG       MB/SR      MB/SR
   0.968       150.        8.6        0.5
ENDDATA              3
ENDSUBENT           19
ENDENTRY             8
