ENTRY            O0895   20030501
SUBENT        O0895001   20030501
BIB                 10         14
TITLE      Scattering of protons near thresholds of (P,N)
           reactions to analogue states.
AUTHOR     (E.Friedman, A.Ginzburg, A.A.Jaffe, A.Marinov)
INSTITUTE  (3ISLHEB)
REFERENCE  (J,NP/A,110,300,1968)
DETECTOR   (SILI)
FACILITY   (VDGT,3ISLHEB)
METHOD     (BCINT)
           (SITA)
HISTORY    (20011217C)
           (20030501U) Last checking has been done.
STATUS     (CURVE) By CAJAD.
ERR-ANALYS (EN-ERR-DIG)  Data point reader uncertainty
           (ERR-DIG)  Data point reader uncertainty
ENDBIB              14
NOCOMMON
ENDSUBENT           17
SUBENT        O0895002   20030501
BIB                  2          3
REACTION   (25-MN-55(P,EL)25-MN-55,,DA,,REL)
SAMPLE     The target was a self-supporting manganese foil of
           thickness 0.5e-3 gramm/cm*2
ENDBIB               3
COMMON               2          3
EN-ERR-DIG ERR-DIG
MEV        ARB-UNITS
     5.E-03         5.
ENDCOMMON            3
DATA                 3         94
EN         ANG        DATA
MEV        ADEG       ARB-UNITS
      8.217      162.5      1138.
       8.22       125.      6040.
      8.251      162.5      1085.
      8.252       125.      6430.
      8.277      162.5       959.
      8.283       125.      5900.
      8.311       125.      6790.
      8.313      162.5      1128.
      8.334       125.      6300.
      8.336      162.5      1093.
      8.367       125.      5930.
      8.368      162.5      1281.
        8.4       125.      6240.
      8.401      162.5      1413.
      8.424      162.5      1175.
       8.43       125.      6170.
      8.458      162.5      1031.
       8.46       125.      5950.
       8.48      162.5      1088.
      8.483       125.      5570.
      8.514      162.5       759.
      8.516       125.      5580.
      8.552       125.      6010.
      8.553      162.5      1206.
      8.571       125.      5600.
      8.576      162.5      1005.
      8.606      162.5       971.
      8.608       125.      5490.
      8.634       125.      5390.
      8.638      162.5      1250.
       8.66      162.5      1326.
      8.663       125.      5700.
      8.694      162.5       923.
      8.697       125.      5480.
      8.723       125.      5490.
      8.723      162.5      1148.
       8.75      162.5       984.
      8.753       125.      5110.
      8.779      162.5      1134.
      8.782       125.      5270.
      8.811       125.      5470.
      8.816      162.5      1082.
      8.842       125.      5060.
      8.842      162.5       863.
      8.871       125.      5220.
      8.871      162.5      1087.
      8.897      162.5      1071.
        8.9       125.      5570.
      8.927       125.      4820.
       8.93      162.5      1093.
      8.959      162.5      1169.
       8.96       125.      5200.
      8.989       125.      5290.
       8.99      162.5      1006.
       9.02       125.      4760.
      9.023      162.5      1028.
      9.045       125.      4690.
      9.048      162.5      1196.
      9.077      162.5      1217.
      9.078       125.      5010.
      9.103      162.5      1275.
      9.108       125.      4790.
      9.136      162.5      1278.
      9.138       125.      4450.
      9.164       125.      4690.
      9.166      162.5      1318.
      9.193       125.      4660.
      9.195      162.5      1302.
      9.219       125.      4590.
      9.229      162.5      1102.
      9.252      162.5      1049.
      9.257       125.      4180.
      9.279       125.      4070.
      9.284      162.5      1310.
       9.31      162.5      1147.
      9.316       125.      4350.
      9.338       125.      4500.
       9.34      162.5      1223.
      9.371       125.      4400.
      9.373      162.5      1226.
        9.4       125.      4520.
      9.403      162.5      1044.
      9.426       125.      4450.
      9.431      162.5      1379.
      9.454      162.5      1252.
      9.456       125.      4500.
       9.49       125.      4090.
       9.49      162.5      1385.
      9.523       125.      4170.
      9.523      162.5      1480.
      9.545       125.      4370.
       9.55      162.5      1224.
      9.579       125.      3920.
      9.579      162.5      1337.
ENDDATA             96
ENDSUBENT          108
SUBENT        O0895003   20030501
BIB                  3          4
REACTION   (25-MN-55(P,INL)25-MN-55,PAR,DA,,REL)
SAMPLE     The target was a self-supporting manganese foil of
           thickness 0.5e-3 gramm/cm*2
EN-SEC     (E-LVL,25-MN-55)
ENDBIB               4
COMMON               4          3
EN-ERR-DIG ERR-DIG    ANG        E-LVL
MEV        ARB-UNITS  ADEG       KEV
     5.E-03         5.       125.       126.
ENDCOMMON            3
DATA                 2         47
EN         DATA
MEV        ARB-UNITS
      8.221       410.
      8.251       400.
      8.284       401.
      8.317       428.
      8.342       508.
      8.376       452.
      8.399       419.
      8.428       439.
      8.454       398.
      8.487       433.
      8.528       393.
      8.547       378.
      8.576       394.
        8.6       489.
      8.642       415.
      8.669       370.
      8.695       375.
      8.728       395.
      8.754       395.
      8.787       385.
      8.813       374.
      8.847       360.
      8.873       338.
      8.898       400.
      8.924       381.
       8.96       416.
      8.987       361.
      9.023       399.
      9.049       404.
      9.075       382.
      9.113       357.
      9.138       391.
      9.171       374.
      9.197       370.
      9.223       398.
      9.256       376.
      9.285       433.
      9.318       423.
      9.349       375.
      9.374       383.
      9.408       369.
      9.429       396.
      9.458       423.
       9.49       337.
      9.523       335.
      9.544       407.
       9.57       359.
ENDDATA             49
ENDSUBENT           62
SUBENT        O0895004   20030501
BIB                  2          2
REACTION   (26-FE-56(P,EL)26-FE-56,,DA,,REL)
SAMPLE     Fe-56 target 0.1e-3 gramm/cm*2 thick was used
ENDBIB               2
COMMON               2          3
EN-ERR-DIG ERR-DIG
MEV        ARB-UNITS
      0.012      2300.
ENDCOMMON            3
DATA                 3        137
EN         ANG        DATA
MEV        ADEG       ARB-UNITS
      8.569      162.5    104600.
      8.584       125.    236500.
      8.605      162.5    115800.
       8.61       125.    241500.
      8.631      162.5    110900.
      8.645       125.    231400.
       8.68       125.    224700.
      8.683      162.5     97800.
      8.698       125.    224700.
      8.719      162.5    100900.
      8.725       125.    233000.
      8.728      162.5    105700.
      8.769       125.    239600.
      8.781      162.5    113600.
       8.79      162.5    113600.
      8.795       125.    239500.
       8.83       125.    237800.
      8.834      162.5    108700.
      8.856       125.    217700.
      8.868      162.5     95600.
      8.891       125.    201000.
      8.894      162.5     73000.
      8.929      162.5     71300.
      8.935       125.    191000.
      8.944       125.    185900.
      8.964      162.5     66300.
      8.979       125.    177600.
      8.982      162.5     74300.
      9.014       125.    180800.
      9.018      162.5     83900.
       9.04       125.    180800.
      9.045      162.5     95100.
      9.085       125.    192400.
      9.088      162.5     86900.
      9.103       125.    202400.
      9.106      162.5     78800.
      9.132      162.5     77100.
      9.146       125.    192300.
      9.164       125.    192300.
      9.176      162.5     70500.
      9.199       125.    185500.
      9.212      162.5     76900.
       9.22      162.5     76900.
      9.234       125.    182200.
      9.256      162.5     78400.
       9.27       125.    183800.
       9.27       125.    185400.
      9.291      162.5     71800.
      9.317      162.5     68500.
      9.331       125.    178700.
      9.349       125.    173600.
      9.352      162.5     68400.
      9.388      162.5     79600.
      9.401       125.    163600.
      9.419       125.    163500.
      9.423      162.5     89200.
      9.436       125.    160200.
       9.45      162.5     90700.
      9.485      162.5     84200.
      9.489       125.    161700.
      9.507       125.    160100.
      9.521      162.5     95300.
      9.542       125.    160000.
      9.556      162.5     92000.
      9.568       125.    151600.
      9.573      162.5     80700.
      9.612       125.    148200.
      9.617      162.5     80500.
      9.621       125.    148200.
      9.644      162.5     93400.
      9.662      162.5     94900.
      9.674       125.    158100.
      9.701       125.    158100.
      9.705      162.5     81900.
      9.731      162.5     68900.
      9.736       125.    151400.
      9.758      162.5     59200.
      9.762       125.    139700.
      9.771       125.    143000.
      9.784      162.5     57500.
      9.819      162.5     60600.
      9.824       125.    147900.
       9.85       125.    134500.
      9.855      162.5     71800.
      9.891      162.5     86200.
      9.894       125.    139400.
      9.912       125.    141100.
      9.917      162.5     79700.
      9.938       125.    131000.
      9.952      162.5     71500.
      9.973       125.    122700.
      9.987      162.5     66500.
      10.01       125.    119300.
      10.01      162.5     72900.
      10.03       125.    120900.
      10.04      162.5     72800.
      10.07       125.    120800.
      10.07      162.5     66300.
       10.1      162.5     66200.
      10.11       125.    105800.
      10.13       125.    105700.
      10.14      162.5     67700.
      10.16      162.5     75700.
      10.17       125.    107300.
      10.19       125.    105600.
      10.19      162.5     74000.
      10.22      162.5     70700.
      10.23       125.    100600.
      10.26       125.     85500.
      10.26      162.5     57700.
      10.29      162.5     65600.
       10.3       125.     85500.
      10.31       125.     85500.
      10.31      162.5     70400.
      10.33       125.     88800.
      10.34      162.5     72000.
      10.38       125.     92000.
      10.39      162.5     67000.
       10.4      162.5     65300.
      10.41       125.     88600.
      10.43      162.5     62000.
      10.44       125.     86900.
      10.48       125.     86800.
      10.48      162.5     58600.
      10.49       125.     83500.
      10.52      162.5     63400.
      10.53       125.     86800.
      10.53      162.5     71400.
      10.56       125.     93400.
      10.58      162.5     87400.
      10.59       125.     93300.
      10.59      162.5     87300.
      10.62       125.     96600.
      10.63       125.     83300.
      10.64       125.     91600.
      10.65      162.5     85600.
      10.65      162.5     88800.
ENDDATA            139
ENDSUBENT          150
SUBENT        O0895005   20030501
BIB                  3          3
REACTION   (26-FE-56(P,INL)26-FE-56,PAR,DA,,REL)
SAMPLE     Fe-56 target 0.1e-3 gramm/cm*2 thick was used
EN-SEC     (E-LVL,26-FE-56)
ENDBIB               3
COMMON               3          3
EN-ERR-DIG ERR-DIG    E-LVL
MEV        ARB-UNITS  KEV
      0.012       600.       847.
ENDCOMMON            3
DATA                 3        136
EN         ANG        DATA
MEV        ADEG       ARB-UNITS
      8.587      162.5     26300.
      8.593       125.     55100.
       8.61       125.     56300.
      8.613      162.5     26700.
       8.64      162.5     30700.
      8.655       125.     58900.
      8.676      162.5     32800.
      8.681       125.     54200.
      8.702      162.5     30700.
      8.716       125.     53800.
      8.742       125.     50800.
      8.746      162.5     28700.
      8.777       125.     48700.
      8.781      162.5     26300.
      8.811       125.     41900.
      8.816      162.5     24200.
      8.833      162.5     26700.
      8.838       125.     44400.
       8.86      162.5     26700.
      8.874       125.     46100.
      8.891       125.     46100.
      8.895      162.5     24600.
      8.921      162.5     24600.
      8.927       125.     47800.
      8.956      162.5     22600.
      8.962       125.     46900.
      8.988       125.     41400.
      8.992      162.5     23400.
      9.014       125.     38400.
      9.027      162.5     20600.
      9.049       125.     35500.
      9.062      162.5     17700.
      9.066       125.     32900.
      9.088      162.5     18100.
       9.11       125.     36700.
      9.115      162.5     18500.
      9.132      162.5     18500.
      9.137       125.     38400.
      9.173       125.     39600.
      9.176      162.5     19300.
      9.199       125.     37900.
      9.203      162.5     18900.
      9.238      162.5     16500.
      9.243       125.     34900.
      9.269       125.     34900.
      9.282      162.5     17300.
      9.291      162.5     16500.
      9.296       125.     37900.
      9.299      162.5     16500.
      9.331       125.     37400.
      9.335      162.5     18900.
      9.344      162.5     19300.
      9.366       125.     39100.
      9.379      162.5     18900.
      9.392       125.     35300.
       9.41       125.     31100.
      9.423      162.5     16900.
      9.453       125.     28500.
      9.458      162.5     16100.
      9.489       125.     32300.
      9.494      162.5     19800.
      9.515       125.     32300.
       9.52      162.5     18900.
      9.546      162.5     17300.
      9.568       125.     29700.
      9.586       125.     29300.
      9.591      162.5     19300.
      9.608      162.5     17300.
       9.63       125.     29300.
      9.634      162.5     16900.
       9.67      162.5     16900.
      9.674       125.     29700.
      9.691       125.     29200.
      9.696      162.5     16500.
      9.726       125.     27900.
      9.731      162.5     14900.
       9.77       125.     25800.
      9.775      162.5     12000.
      9.797       125.     27500.
      9.801      162.5     12000.
      9.815       125.     27100.
      9.828      162.5     14900.
      9.849       125.     24100.
      9.854      162.5     14900.
      9.881      162.5     14100.
      9.885       125.     24900.
      9.902       125.     24900.
      9.907      162.5     12400.
      9.938       125.     24000.
      9.951      162.5     10400.
      9.973       125.     23600.
      9.986      162.5     10800.
      10.01       125.     22300.
      10.01      162.5     11200.
      10.04       125.     24000.
      10.04      162.5     12400.
      10.07      162.5     13700.
      10.08       125.     26900.
       10.1      162.5     13700.
      10.11       125.     24000.
      10.12       125.     23900.
      10.14      162.5     13300.
      10.16      162.5     13700.
      10.17       125.     21000.
      10.18       125.     23100.
       10.2      162.5     14900.
      10.22      162.5     15300.
      10.25       125.     26000.
      10.26       125.     26400.
      10.26      162.5     13300.
      10.29       125.     24700.
       10.3      162.5     12000.
      10.32       125.     25100.
      10.33      162.5     11200.
      10.36       125.     24700.
      10.37      162.5      9200.
      10.38       125.     23800.
       10.4      162.5      8400.
      10.42       125.     22100.
      10.42      162.5      8000.
      10.45      162.5      8800.
      10.46       125.     21700.
      10.47       125.     20400.
      10.49      162.5      8800.
      10.51       125.     21600.
      10.52      162.5      9600.
      10.55       125.     23300.
      10.55      162.5     10800.
      10.58       125.     22500.
      10.58      162.5     10800.
      10.59       125.     21200.
       10.6      162.5      8800.
      10.63      162.5      8000.
      10.64       125.     20700.
      10.66       125.     20700.
      10.67      162.5      8800.
ENDDATA            138
ENDSUBENT          150
SUBENT        O0895006   20030501
BIB                  2          2
REACTION   (29-CU-0(P,EL)29-CU-0,,DA,,REL)
SAMPLE     Natural copper target 2.60e-3 gramm/cm*2 thick
ENDBIB               2
COMMON               2          3
EN-ERR-DIG ERR-DIG
MEV        ARB-UNITS
     9.E-03       800.
ENDCOMMON            3
DATA                 3        103
EN         ANG        DATA
MEV        ADEG       ARB-UNITS
      9.389      162.5     69600.
      9.402       125.     64700.
      9.426       125.     65900.
      9.426      162.5     69600.
      9.463       125.     62900.
      9.463      162.5     66600.
      9.488      162.5     66600.
      9.494       125.     63500.
      9.518       125.     69400.
      9.518      162.5     74400.
      9.555      162.5     67800.
      9.568       125.     57600.
       9.58       125.     57600.
      9.586      162.5     67200.
      9.605      162.5     63000.
      9.623       125.     55300.
      9.635      162.5     68400.
      9.642       125.     55300.
      9.679      162.5     64200.
      9.685       125.     50000.
      9.709       125.     52400.
      9.709      162.5     67200.
       9.74      162.5     64200.
      9.746       125.     48200.
      9.771       125.     46500.
      9.777      162.5     66600.
      9.808       125.     43500.
      9.808      162.5     64200.
      9.832      162.5     66600.
      9.839       125.     44700.
      9.876      162.5     64800.
      9.882       125.     42400.
      9.894       125.     43500.
        9.9      162.5     66600.
      9.925      162.5     64200.
      9.931       125.     40600.
      9.962       125.     38800.
      9.962      162.5     66600.
      9.986      162.5     67200.
      9.999       125.     37100.
      10.02       125.     37600.
      10.02      162.5     66600.
      10.05       125.     37100.
      10.05      162.5     63000.
      10.09       125.     36500.
      10.09      162.5     64800.
      10.12       125.     37600.
      10.12      162.5     72000.
      10.15       125.     34100.
      10.15      162.5     68400.
      10.18       125.     34100.
      10.18      162.5     65400.
      10.21       125.     33500.
      10.22      162.5     69000.
      10.24       125.     33500.
      10.24      162.5     69600.
      10.26       125.     31800.
      10.28      162.5     66600.
      10.31       125.     30000.
      10.31      162.5     63600.
      10.33       125.     29400.
      10.33      162.5     63600.
      10.37      162.5     63600.
      10.38       125.     27600.
       10.4       125.     28800.
       10.4      162.5     63600.
      10.42       125.     28200.
      10.43      162.5     66600.
      10.45       125.     26500.
      10.45      162.5     65400.
       10.5       125.     26500.
       10.5      162.5     67800.
      10.53       125.     24700.
      10.53      162.5     67800.
      10.56       125.     25900.
      10.56      162.5     69600.
      10.59       125.     23500.
      10.59      162.5     64800.
      10.62       125.     23500.
      10.63      162.5     65400.
      10.65       125.     24100.
      10.65      162.5     67200.
      10.68       125.     21200.
      10.69      162.5     64200.
      10.71       125.     23500.
      10.72      162.5     70200.
      10.75       125.     22400.
      10.76      162.5     69600.
      10.78       125.     19400.
      10.79      162.5     64200.
       10.8      162.5     64800.
      10.81       125.     20600.
      10.82      162.5     64800.
      10.84       125.     20000.
      10.85      162.5     63600.
      10.88       125.     18200.
      10.89      162.5     61800.
       10.9       125.     17600.
      10.92      162.5     61200.
      10.93       125.     17600.
      10.95      162.5     62400.
      10.97       125.     15900.
      10.98      162.5     61200.
ENDDATA            105
ENDSUBENT          116
SUBENT        O0895007   20030501
BIB                  3          4
REACTION   (29-CU-0(P,INL)29-CU-0,PAR,DA,,REL)
SAMPLE     Natural copper target 2.60e-3gramm/cm*2 thick
EN-SEC     (E-LVL,29-CU-63) 1114 KeV level of Cu-65 was included
           too.
ENDBIB               4
COMMON               3          3
EN-ERR-DIG ERR-DIG    E-LVL
MEV        ARB-UNITS  KEV
     9.E-03        40.       961.
ENDCOMMON            3
DATA                 3        102
EN         ANG        DATA
MEV        ADEG       ARB-UNITS
      9.383       125.      2590.
      9.389      162.5      1260.
      9.426       125.      2820.
      9.426      162.5      1170.
      9.451       125.      2790.
      9.457      162.5      1290.
      9.488       125.      2530.
      9.494      162.5      1170.
      9.518       125.      3410.
      9.525      162.5      1410.
      9.549      162.5      1320.
      9.555       125.      2000.
      9.586       125.      2120.
      9.586      162.5      1260.
      9.611       125.      1790.
      9.617      162.5      1260.
      9.648      162.5      1440.
       9.66       125.      2560.
      9.672       125.      2440.
      9.679      162.5      1290.
      9.715       125.      2710.
      9.715      162.5      1230.
      9.746       125.      2120.
      9.746      162.5      1230.
      9.771       125.      2320.
      9.777      162.5      1120.
      9.802       125.      2180.
      9.808      162.5      1290.
      9.832       125.      2380.
      9.845      162.5      1150.
      9.863       125.      2410.
      9.869      162.5      1320.
        9.9       125.      2560.
      9.906      162.5      1410.
      9.931       125.      2350.
      9.943      162.5      1260.
      9.962       125.      2210.
      9.962      162.5      1090.
      9.992       125.      2030.
      9.992      162.5      1260.
      10.02       125.      2240.
      10.02      162.5      1030.
      10.05       125.      1940.
      10.05      162.5       770.
      10.09       125.      2120.
      10.09      162.5      1060.
      10.12       125.      2260.
      10.12      162.5      1000.
      10.15       125.      2120.
      10.15      162.5       910.
      10.18       125.      2180.
      10.18      162.5       880.
      10.21       125.      2260.
      10.21      162.5      1030.
      10.24       125.      2180.
      10.24      162.5      1150.
      10.28       125.      1970.
      10.28      162.5      1150.
      10.31       125.      2790.
      10.31      162.5      1170.
      10.34       125.      2470.
      10.34      162.5      1060.
      10.37       125.      2260.
      10.37      162.5      1170.
       10.4       125.      2180.
       10.4      162.5      1120.
      10.44       125.      2290.
      10.44      162.5      1520.
      10.46       125.      2260.
      10.47      162.5      1230.
       10.5      162.5      1320.
      10.51       125.      1880.
      10.53       125.      1940.
      10.53      162.5      1410.
      10.56       125.      2000.
      10.56      162.5      1120.
      10.59      162.5       940.
       10.6       125.      1740.
      10.62       125.      1740.
      10.63      162.5      1260.
      10.65      162.5      1320.
      10.66       125.      2120.
      10.69       125.      1910.
      10.69      162.5      1200.
      10.72       125.      2090.
      10.72      162.5      1380.
      10.74       125.      2000.
      10.76      162.5      1200.
      10.78       125.      1880.
      10.79      162.5      1200.
      10.82       125.      2000.
      10.82      162.5      1380.
      10.85       125.      1620.
      10.85      162.5      1350.
      10.88       125.      1590.
      10.89      162.5      1290.
       10.9       125.      1380.
      10.91      162.5      1260.
      10.95       125.      1320.
      10.95      162.5      1170.
      10.98       125.      1380.
      10.98      162.5      1290.
ENDDATA            104
ENDSUBENT          117
ENDENTRY             7
