ENTRY            21023     860904
SUBENT        21023001     860904
BIB                 12         15
INSTITUTE  (2UK HAR)
REFERENCE  (J,PRS/A,215,278,52)
AUTHOR     (A.W.MERRISON,E.R.WIBLIN)
TITLE      -TOTAL CROSS SECTION OF NI-.
FACILITY   (LINAC) NO DETAILS.
INC-SOURCE (PHOTO) LINAC TARGET.
SAMPLE     .METALLIC NI.
METHOD     (TOF  ) TIME OF FLIGHT.
DETECTOR   (SCIN ) NO DETAILS.
STATUS     (NDD  )
HISTORY    (790814T)
           (790831E)
           (860227U)N.CH
           (860411E)
ERR-ANALYS .NO ERRORS GIVEN.
ENDBIB              15
NOCOMMON             0          0
ENDSUBENT           18
SUBENT        21023002     790831
BIB                  2          2
REACTION   (28-NI-0(N,TOT),,SIG)
STATUS     (NDD  )
ENDBIB               2
NOCOMMON             0          0
DATA                 2        100
EN         DATA
MEV        B
 2.3000E-06 1.9700E+01
 2.4000E-06 1.9600E+01
 2.5000E-06 2.0500E+01
 2.6000E-06 2.0300E+01
 2.8500E-06 1.7800E+01
 2.9500E-06 2.0200E+01
 3.0500E-06 1.9300E+01
 3.2500E-06 1.8300E+01
 3.4500E-06 1.8200E+01
 3.6500E-06 1.8800E+01
 3.8500E-06 1.7600E+01
 4.0500E-06 1.8300E+01
 4.2500E-06 1.7600E+01
 4.5500E-06 1.8200E+01
 4.8500E-06 1.8600E+01
 5.1000E-06 1.8900E+01
 5.5000E-06 1.7600E+01
 5.7000E-06 1.7700E+01
 6.1000E-06 1.8600E+01
 6.6000E-06 1.9000E+01
 7.2000E-06 1.7300E+01
 7.7000E-06 1.7900E+01
 8.2000E-06 1.7800E+01
 9.1000E-06 1.8600E+01
 9.7000E-06 1.8000E+01
 1.1700E-05 1.6500E+01
 1.2000E-05 1.9600E+01
 1.4300E-05 1.7500E+01
 1.5700E-05 1.7700E+01
 1.9700E-05 1.6600E+01
 2.2000E-05 1.7700E+01
 2.6000E-05 1.7300E+01
 3.0000E-05 1.7500E+01
 3.5000E-05 1.7000E+01
 3.6000E-05 1.7500E+01
 3.7000E-05 1.6800E+01
 3.8000E-05 1.7200E+01
 3.9500E-05 1.7400E+01
 4.1500E-05 1.7600E+01
 4.3000E-05 1.7400E+01
 4.4000E-05 1.7300E+01
 4.6000E-05 1.6300E+01
 4.7000E-05 1.7300E+01
 5.1000E-05 1.7500E+01
 5.4000E-05 1.7200E+01
 5.6000E-05 1.6300E+01
 5.9000E-05 1.6500E+01
 6.1000E-05 1.6300E+01
 6.3000E-05 1.8500E+01
 6.6000E-05 1.6300E+01
 6.9000E-05 1.6500E+01
 7.2000E-05 1.6700E+01
 7.6000E-05 1.7700E+01
 8.0000E-05 1.6300E+01
 8.8000E-05 1.6000E+01
 9.2000E-05 1.6700E+01
 9.8000E-05 1.7500E+01
 1.0300E-04 1.6900E+01
 1.1000E-04 1.8700E+01
 1.1500E-04 1.9200E+01
 1.2500E-04 2.2000E+01
 1.3000E-04 1.9300E+01
 1.4000E-04 1.8500E+01
 1.5000E-04 1.8400E+01
 1.6000E-04 1.6900E+01
 1.7000E-04 1.7700E+01
 1.8000E-04 1.7000E+01
 1.9500E-04 1.6000E+01
 2.2000E-04 1.6600E+01
 2.5500E-04 1.7300E+01
 2.8000E-04 1.6000E+01
 3.0000E-04 1.6900E+01
 3.3000E-04 1.6900E+01
 4.1500E-04 1.6700E+01
 4.7000E-04 1.6500E+01
 5.8000E-04 1.6000E+01
 6.8000E-04 1.5500E+01
 7.8000E-04 1.5300E+01
 9.4000E-04 1.5000E+01
 1.1000E-03 1.4600E+01
 1.3000E-03 1.4700E+01
 1.5000E-03 1.5000E+01
 1.6500E-03 1.5500E+01
 2.0500E-03 1.6700E+01
 2.5200E-03 1.7500E+01
 2.6500E-03 1.7900E+01
 2.9200E-03 1.9000E+01
 3.1500E-03 2.1900E+01
 3.3700E-03 2.2900E+01
 3.6000E-03 1.7300E+01
 3.6500E-03 2.5100E+01
 4.0100E-03 2.8900E+01
 4.2900E-03 3.0500E+01
 4.5600E-03 3.0900E+01
 5.2100E-03 2.6300E+01
 5.3000E-03 1.9000E+01
 6.4000E-03 1.5500E+01
 7.1900E-03 1.3000E+01
 7.7500E-03 1.3700E+01
 9.2000E-03 1.1900E+01
ENDDATA            102
ENDSUBENT          109
ENDENTRY             2
