ENTRY            21044   19800228              20050926       0000
SUBENT        21044001   19800228              20050926       0000
BIB                 12         46
INSTITUTE  (2UK HAR)
REFERENCE  (J,NP,59,583,6411)
AUTHOR     (F.MANERO,B.H.ARMITAGE,J.M.FREEMAN,J.H.MONTAGUE)
TITLE      -TOTAL NEUTRON CROSS SECTIONS OF C, CA AND FE
            BETWEEN 8 AND 14 MEV-
FACILITY   (VDGT ) TANDEM VAN DE GRAAFF.
INC-SOURCE (D-D  ) DEUTERON BEAM COLLIMATED TO 0.3 CM DIAMETER
                   INCIDENT THROUGH A 2.5 MICRO-M NI WINDOW ON
                   A DEUTERIUM GAS CELL, 0.63 CM LONG AND 5 CM
                   IN DIAMETER.
           .NEUTRON ENERGY SPREAD FROM VARIATION IN DEUTERON
            ENERGY OVER THE LENGTH OF THE TARGET, STRAGGLING
            IN THE NI WINDOW AND FINITE ANGLE OF THE DETECTOR
            FROM THE NEUTRON SOURCE (1.7 DEGREES) ESTIMATED
            TO VARY FROM 50 KEV AT 7 MEV TO 20 KEV AT 14 MEV.
METHOD     (PSD  ) TRANSMISSION METHOD USING PULSE SHAPE
                   DISCRIMINATION TO SEPARATE NEUTRONS AND
                   GAMMAS.
DETECTOR   (SCIN ) STILBENE SCINTILLATOR, 5 CM IN DIAMETER AND
                   5 CM LONG, AND EMI 6097 PHOTOMULTIPLIER
                   PLACED BEHIND SAMPLE AT 0 DEGREES TO THE
                   DEUTERON BEAM TO COUNT TRANSMITTED NEUTRONS.
                   IDENTICAL SCINTILLATOR AT 20 DEGREES TO THE
                   DEUTERON BEAM TO MONITOR NEUTRON FLUX.
STATUS     (NDD  ) FROM NEUDADA. DATA GIVEN IN TABLES 1 AND 2
                   OF PUBLICATION.
HISTORY    (790802C)
           (790831E)
CORRECTION .ROOM BACKGROUND MEASURED USING 25 CM IRON ROD
            BETWEEN TARGET AND 0 DEGREE COUNTER. RESIDUAL
            FLUX WITHOUT GAS IN THE CELL WAS EXAMINED AND
            THE SAMPLE WAS FOUND TO HAVE CLOSELY SIMILAR
            TRANSMISSION FOR THESE NEUTRONS SO THAT NO
            CORRECTION WAS MADE.
           .CORRECTION FOR INSCATTERING FROM SAMPLE TO
            DETECTOR, LESS THAN 1 PERCENT FOR C AND CA,
            LESS THAN 1.6 PERCENT FOR FE.
           .NO CORRECTION FOR INELASTICALLY SCATTERED NEUTRONS
            FROM SAMPLE REACHING THE DETECTOR.
ERR-ANALYS .NEUTRON ENERGY ERROR OF +-30 KEV DUE TO COMPOUNDED
            UNCERTAINTIES IN TANDEM ENERGY CALIBRATION AND IN
            DEUTERON ENERGY LOSSES IN NI WINDOW AND GAS CELL.
           .TOTAL DATA ERROR FOUND BY COMPOUNDING THE EFFECTS
            OF COUNTING STATISTICS (LESS THAN 1 PERCENT) AND
            UNCERTAINTIES IN BACKGROUND AND INSCATTERING
            CORRECTIONS.
ENDBIB              46
COMMON               1          3
EN-ERR
KEV
 3.0000E+01
ENDCOMMON            3
ENDSUBENT           53
SUBENT        21044002   19790831              20050926       0000
BIB                  3          7
REACTION   (6-C-12(N,TOT),,SIG)
SAMPLE     .CYLINDERS OF REACTOR QUALITY GRAPHITE, 5 CM AND
            7.5 CM LONG AND 2.5 CM IN DIAMETER, COAXIAL WITH
            GAS TARGET AND DETECTOR.
            AND 7.5 CM AND DIAMETER 2.5 CM.
STATUS     (NDD  ) FROM NEUDADA. DATA GIVEN IN TABLE 1 OF THE
                   PUBLICATION.
ENDBIB               7
COMMON               1          3
DATA-ERR
PER-CENT
 1.5000E+00
ENDCOMMON            3
DATA                 2         95
EN         DATA
MEV        B
 7.0400E+00 7.4000E-01
 7.1400E+00 7.5000E-01
 7.1900E+00 8.0000E-01
 7.2500E+00 8.7000E-01
 7.3000E+00 1.0200E+00
 7.3500E+00 1.3300E+00
 7.4000E+00 1.6800E+00
 7.4500E+00 1.8000E+00
 7.5000E+00 1.7800E+00
 7.5600E+00 1.7600E+00
 7.6100E+00 1.7500E+00
 7.6600E+00 1.7200E+00
 7.7000E+00 1.8200E+00
 7.7600E+00 2.1300E+00
 7.8100E+00 2.2500E+00
 7.8600E+00 2.1300E+00
 7.9100E+00 2.0100E+00
 7.9600E+00 1.9700E+00
 8.0100E+00 1.9000E+00
 8.0600E+00 1.9200E+00
 8.1000E+00 1.9200E+00
 8.1500E+00 1.8700E+00
 8.2000E+00 1.7100E+00
 8.2500E+00 1.4600E+00
 8.3000E+00 1.3100E+00
 8.3500E+00 1.2300E+00
 8.4000E+00 1.1900E+00
 8.4500E+00 1.1200E+00
 8.5000E+00 1.1200E+00
 8.5500E+00 1.0500E+00
 8.6000E+00 1.0800E+00
 8.6500E+00 1.0500E+00
 8.7000E+00 1.0500E+00
 8.7500E+00 1.0500E+00
 8.8000E+00 1.0400E+00
 8.8500E+00 1.0500E+00
 8.9100E+00 1.0400E+00
 8.9600E+00 1.0800E+00
 9.0100E+00 1.0800E+00
 9.0600E+00 1.1000E+00
 9.1100E+00 1.1900E+00
 9.1600E+00 1.2100E+00
 9.2100E+00 1.2800E+00
 9.2600E+00 1.2900E+00
 9.3000E+00 1.3000E+00
 9.3400E+00 1.3000E+00
 9.4400E+00 1.2600E+00
 9.5400E+00 1.2300E+00
 9.6300E+00 1.2200E+00
 9.7300E+00 1.2300E+00
 9.8300E+00 1.2300E+00
 9.9300E+00 1.1800E+00
 1.0030E+01 1.1400E+00
 1.0120E+01 1.1200E+00
 1.0220E+01 1.1100E+00
 1.0320E+01 1.1100E+00
 1.0420E+01 1.1200E+00
 1.0510E+01 1.1600E+00
 1.0610E+01 1.2200E+00
 1.0710E+01 1.2800E+00
 1.0800E+01 1.3300E+00
 1.0900E+01 1.3800E+00
 1.1000E+01 1.4000E+00
 1.1100E+01 1.3800E+00
 1.1190E+01 1.4000E+00
 1.1290E+01 1.3800E+00
 1.1380E+01 1.3500E+00
 1.1480E+01 1.3200E+00
 1.1570E+01 1.2900E+00
 1.1670E+01 1.3100E+00
 1.1760E+01 1.3100E+00
 1.1860E+01 1.3200E+00
 1.1960E+01 1.4000E+00
 1.2060E+01 1.4100E+00
 1.2150E+01 1.4500E+00
 1.2250E+01 1.4200E+00
 1.2350E+01 1.3300E+00
 1.2440E+01 1.3200E+00
 1.2530E+01 1.3000E+00
 1.2630E+01 1.3200E+00
 1.2730E+01 1.3200E+00
 1.2820E+01 1.3300E+00
 1.2910E+01 1.3000E+00
 1.3010E+01 1.3400E+00
 1.3110E+01 1.3600E+00
 1.3200E+01 1.3400E+00
 1.3290E+01 1.3500E+00
 1.3370E+01 1.3500E+00
 1.3580E+01 1.3600E+00
 1.3770E+01 1.3000E+00
 1.3960E+01 1.2800E+00
 1.4060E+01 1.2700E+00
 1.4160E+01 1.2700E+00
 1.4250E+01 1.3000E+00
 1.4340E+01 1.3100E+00
ENDDATA             97
ENDSUBENT          113
SUBENT        21044003   19790831              20050926       0000
BIB                  3          6
REACTION   (20-CA-0(N,TOT),,SIG)
SAMPLE     .CYLINDER OF CALCIUM METAL, 12.8 CM LONG AND 2.5 CM
            IN DIAMETER, SEALED IN POLYTHENE BAG AND COAXIAL
            WITH DETECTOR AND GAS TARGET.
STATUS     (NDD  ) FROM NEUDADA. DATA GIVEN IN TABLE 2 OF THE
                   PUBLICATION.
ENDBIB               6
NOCOMMON             0          0
DATA                 3         61
EN         DATA       DATA-ERR
MEV        B          PER-CENT
 8.5200E+00 2.7800E+00 1.5000E+00
 8.6200E+00 2.8000E+00 1.5000E+00
 8.7200E+00 2.8100E+00 1.5000E+00
 8.8200E+00 2.7500E+00 1.5000E+00
 8.9200E+00 2.7500E+00 1.5000E+00
 9.0200E+00 2.8300E+00 1.5000E+00
 9.1200E+00 2.8200E+00 1.5000E+00
 9.2200E+00 2.8100E+00 1.5000E+00
 9.3100E+00 2.7300E+00 1.5000E+00
 9.4100E+00 2.7500E+00 1.5000E+00
 9.5100E+00 2.7700E+00 1.5000E+00
 9.6000E+00 2.7800E+00 1.5000E+00
 9.7000E+00 2.7300E+00 1.5000E+00
 9.8000E+00 2.6000E+00 1.5000E+00
 9.9000E+00 2.6900E+00 1.5000E+00
 9.9900E+00 2.7100E+00 1.5000E+00
 1.0090E+01 2.6800E+00 1.5000E+00
 1.0180E+01 2.5800E+00 1.5000E+00
 1.0280E+01 2.5500E+00 1.5000E+00
 1.0380E+01 2.5600E+00 1.5000E+00
 1.0470E+01 2.5500E+00 1.5000E+00
 1.0570E+01 2.5600E+00 1.5000E+00
 1.0670E+01 2.6300E+00 1.5000E+00
 1.0760E+01 2.5500E+00 1.5000E+00
 1.0860E+01 2.5400E+00 1.5000E+00
 1.0960E+01 2.5300E+00 1.5000E+00
 1.1050E+01 2.5500E+00 1.5000E+00
 1.1150E+01 2.5200E+00 1.5000E+00
 1.1250E+01 2.5200E+00 1.5000E+00
 1.1340E+01 2.4600E+00 1.5000E+00
 1.1440E+01 2.4700E+00 2.0000E+00
 1.1530E+01 2.5100E+00 2.0000E+00
 1.1630E+01 2.4300E+00 2.0000E+00
 1.1720E+01 2.4300E+00 2.0000E+00
 1.1820E+01 2.4300E+00 2.0000E+00
 1.1910E+01 2.4100E+00 2.0000E+00
 1.2010E+01 2.3800E+00 2.0000E+00
 1.2100E+01 2.3800E+00 2.0000E+00
 1.2200E+01 2.3900E+00 2.0000E+00
 1.2300E+01 2.3600E+00 2.0000E+00
 1.2390E+01 2.3700E+00 2.0000E+00
 1.2480E+01 2.3000E+00 2.0000E+00
 1.2580E+01 2.3300E+00 2.0000E+00
 1.2680E+01 2.3400E+00 2.0000E+00
 1.2770E+01 2.2900E+00 2.0000E+00
 1.2860E+01 2.3400E+00 2.0000E+00
 1.2960E+01 2.3600E+00 2.0000E+00
 1.3060E+01 2.3500E+00 2.0000E+00
 1.3150E+01 2.2700E+00 2.0000E+00
 1.3240E+01 2.2600E+00 2.0000E+00
 1.3340E+01 2.2900E+00 2.0000E+00
 1.3430E+01 2.2300E+00 2.0000E+00
 1.3530E+01 2.2600E+00 2.0000E+00
 1.3630E+01 2.2200E+00 2.0000E+00
 1.3720E+01 2.2600E+00 2.0000E+00
 1.3820E+01 2.2400E+00 2.0000E+00
 1.3910E+01 2.2100E+00 2.0000E+00
 1.4000E+01 2.2100E+00 2.0000E+00
 1.4100E+01 2.2000E+00 2.0000E+00
 1.4190E+01 2.1500E+00 2.0000E+00
 1.4280E+01 2.2100E+00 2.0000E+00
ENDDATA             63
ENDSUBENT           74
SUBENT        21044004   19790831              20050926       0000
BIB                  3          5
REACTION   (26-FE-0(N,TOT),,SIG)
SAMPLE     .MILD STEEL ROD, 3.5 CM LONG AND 2.5 CM IN DIAMETER,
            COAXIAL WITH DETECTOR AND GAS TARGET.
STATUS     (NDD  ) FROM NEUDADA. DATA GIVEN IN TABLE 2 OF THE
                   PUBLICATION.
ENDBIB               5
NOCOMMON             0          0
DATA                 3         63
EN         DATA       DATA-ERR
MEV        B          PER-CENT
 8.3200E+00 3.4100E+00 1.5000E+00
 8.4200E+00 3.4000E+00 1.5000E+00
 8.5200E+00 3.3600E+00 1.5000E+00
 8.6200E+00 3.3500E+00 1.5000E+00
 8.7200E+00 3.2500E+00 1.5000E+00
 8.8200E+00 3.2800E+00 1.5000E+00
 8.9200E+00 3.2700E+00 1.5000E+00
 9.0200E+00 3.2900E+00 1.5000E+00
 9.1200E+00 3.2400E+00 1.5000E+00
 9.2200E+00 3.1800E+00 1.5000E+00
 9.3100E+00 3.2300E+00 1.5000E+00
 9.4100E+00 3.1900E+00 1.5000E+00
 9.5100E+00 3.2500E+00 1.5000E+00
 9.6000E+00 3.1700E+00 1.5000E+00
 9.7000E+00 3.1300E+00 1.5000E+00
 9.8000E+00 3.1300E+00 1.5000E+00
 9.9000E+00 3.1100E+00 1.5000E+00
 9.9900E+00 3.1000E+00 1.5000E+00
 1.0090E+01 3.0600E+00 1.5000E+00
 1.0180E+01 3.1100E+00 1.5000E+00
 1.0280E+01 3.0500E+00 1.5000E+00
 1.0380E+01 3.0100E+00 1.5000E+00
 1.0470E+01 3.0000E+00 1.5000E+00
 1.0570E+01 3.0500E+00 1.5000E+00
 1.0670E+01 2.9900E+00 1.5000E+00
 1.0760E+01 3.0000E+00 1.5000E+00
 1.0860E+01 3.0200E+00 1.5000E+00
 1.0960E+01 3.0300E+00 1.5000E+00
 1.1050E+01 2.9900E+00 1.5000E+00
 1.1150E+01 2.9700E+00 1.5000E+00
 1.1250E+01 2.9100E+00 1.5000E+00
 1.1340E+01 2.9500E+00 1.5000E+00
 1.1440E+01 2.9500E+00 2.0000E+00
 1.1530E+01 2.9000E+00 2.0000E+00
 1.1630E+01 2.8700E+00 2.0000E+00
 1.1720E+01 2.8300E+00 2.0000E+00
 1.1820E+01 2.8700E+00 2.0000E+00
 1.1910E+01 2.8200E+00 2.0000E+00
 1.2010E+01 2.8400E+00 2.0000E+00
 1.2100E+01 2.8800E+00 2.0000E+00
 1.2200E+01 2.8100E+00 2.0000E+00
 1.2300E+01 2.7800E+00 2.0000E+00
 1.2390E+01 2.7600E+00 2.0000E+00
 1.2480E+01 2.7800E+00 2.0000E+00
 1.2580E+01 2.7600E+00 2.0000E+00
 1.2680E+01 2.7400E+00 2.0000E+00
 1.2770E+01 2.7600E+00 2.0000E+00
 1.2860E+01 2.7200E+00 2.0000E+00
 1.2960E+01 2.7700E+00 2.0000E+00
 1.3060E+01 2.7400E+00 2.0000E+00
 1.3150E+01 2.7100E+00 2.0000E+00
 1.3240E+01 2.6700E+00 2.0000E+00
 1.3340E+01 2.6900E+00 2.0000E+00
 1.3430E+01 2.6300E+00 2.0000E+00
 1.3530E+01 2.6300E+00 2.0000E+00
 1.3630E+01 2.6500E+00 2.0000E+00
 1.3720E+01 2.6600E+00 2.0000E+00
 1.3820E+01 2.6800E+00 2.0000E+00
 1.3910E+01 2.6200E+00 2.0000E+00
 1.4000E+01 2.4700E+00 2.0000E+00
 1.4100E+01 2.5300E+00 2.0000E+00
 1.4190E+01 2.5400E+00 2.0000E+00
 1.4280E+01 2.5400E+00 2.0000E+00
ENDDATA             65
ENDSUBENT           75
ENDENTRY             4
