ENTRY            10727   20090911   20091127   20091126       1355
SUBENT        10727001   20090911   20091127   20091126       1355
BIB                  8         14
INSTITUTE  (1USADKE)
REFERENCE  (J,AP,69,451,197202)
           (T,SEIBEL,1968)
AUTHOR     (F.T.Seibel,E.G.Bilpuch,H.W.Newson)
TITLE      S- and P-Wave Neutron Spectroscopy. Part Xb:
            Intermediate Structure, 48Ca, 207Pb.
FACILITY   (VDG,1USADKE) 3-MeV Van de Graaff
INC-SOURCE (P-LI7) protons on lithium
STATUS     (APRVD) Approved by M. Divadeenum, 1980/6/6.
HISTORY    (19780418C)
           (19800420A) reference update. Bib corrections.
           (19840711A) Subentries 5-8 moved to data set 12683.
           (20090909A) VM:Updated to new date formats,lower case.
                       BIB updates.
ENDBIB              14
NOCOMMON             0          0
ENDSUBENT           17
SUBENT        10727002   20090911   20091127   20091126       1355
BIB                  7         15
REACTION   (20-CA-48(N,TOT),,SIG)
SAMPLE     Enriched to 97.08% 48Ca. Calcium oxide sample of
            2.382-gms and 0.02437 atoms/barn in silver container
            with 0.5-inch diameter.
DETECTOR   (BF3) Boron trifluoride detector
METHOD     Transmission measurements made with sample in and out
            of beam. 20-degree collimator used. Sample out
            normalized data fitted by least squares fit and
            resulting parameters used to reduce scatter of cross
            section calculations. Oxygen contribution subtracted
            after data was plotted.
ERR-ANALYS No information on uncertainties.
STATUS     (TABLE) Data taken from private communication,
                   M. Divadeenam.
HISTORY    (19841024A) Energy corrected.
ENDBIB              15
NOCOMMON             0          0
DATA                 2        577
EN         DATA
KEV        B
  78.       0.73
  79.       3.14
  80.       1.75
  81.       1.64
  82.       1.95
  83.       4.91
  84.       4.86
  85.       3.52
  86.       4.63
  87.       4.86
  88.       3.23
  89.       3.93
  90.       4.92
  91.       4.01
  92.       2.70
  93.       4.42
  94.       2.89
  95.       3.24
  96.       4.27
  97.       3.55
  98.       3.76
  99.       4.12
 100.       4.22
 101.       3.31
 102.       2.98
 103.       3.42
 104.       1.18
 105.       1.20
 106.       4.38
 107.       2.25
 108.       2.83
 109.       2.55
 110.       3.35
 111.       3.80
 112.       3.12
 113.       3.41
 114.       4.55
 115.       4.60
 116.       4.55
 117.       4.50
 118.       3.87
 119.       3.66
 120.       3.79
 121.       3.79
 122.       3.01
 123.       3.56
 124.       3.07
 125.       3.45
 126.       3.78
 127.       5.30
 128.       4.52
 129.       3.72
 130.       4.11
 131.       1.91
 132.       2.85
 133.       3.12
 134.       4.38
 135.       5.87
 136.       5.24
 137.       5.98
 138.       4.69
 139.       5.47
 140.       3.14
 141.       4.01
 142.       3.66
 143.       3.58
 144.       4.05
 145.       4.39
 146.       2.74
 147.       4.20
 148.       2.98
 149.       4.08
 150.       3.24
 151.       3.84
 152.       2.70
 153.       4.44
 154.       3.24
 155.       3.27
 156.       5.99
 157.       3.97
 158.       2.55
 159.       2.35
 160.       3.70
 161.       2.84
 162.       2.91
 163.       3.62
 164.       3.83
 165.       4.52
 166.       3.79
 167.       4.01
 168.       3.53
 169.       3.62
 170.       4.55
 171.       3.96
 172.       4.19
 173.       3.74
 174.       4.41
 175.       3.06
 176.       2.68
 177.       3.89
 178.       3.62
 179.       3.68
 180.       4.31
 181.       3.74
 182.       2.97
 183.       4.18
 184.       4.24
 185.       3.32
 186.       3.96
 187.       2.66
 188.       3.63
 189.       3.06
 190.       3.70
 191.       3.78
 192.       4.41
 193.       4.15
 194.       4.19
 195.       4.94
 196.       3.37
 197.       3.35
 198.       3.81
 199.       3.14
 200.       4.26
 201.       4.23
 202.       3.46
 203.       3.69
 204.       2.91
 205.       3.69
 206.       3.56
 207.       2.46
 208.       2.84
 209.       2.89
 210.       3.86
 211.       2.77
 212.       3.43
 213.       3.09
 214.       3.34
 215.       4.01
 216.       4.57
 217.       4.20
 218.       3.19
 219.       3.47
 220.       2.92
 221.       3.63
 222.       4.37
 223.       3.59
 224.       3.30
 225.       3.39
 226.       3.08
 227.       1.98
 228.       3.77
 229.       2.22
 230.       3.57
 231.       2.83
 232.       3.49
 233.       3.35
 234.       2.85
 235.       3.72
 236.       4.20
 237.       3.93
 238.       3.26
 239.       3.33
 240.       3.26
 241.       3.58
 242.       4.29
 243.       4.06
 244.       3.33
 245.       3.35
 246.       4.54
 247.       3.92
 248.       4.15
 249.       3.43
 250.       3.61
 251.       3.49
 252.       3.70
 253.       4.48
 254.       3.24
 255.       3.59
 256.       4.24
 257.       4.85
 258.       4.11
 259.       3.53
 260.       3.75
 261.       3.48
 262.       3.90
 263.       3.62
 264.       3.62
 265.       2.46
 266.       4.15
 267.       4.45
 268.       3.50
 269.       3.60
 270.       3.06
 271.       3.25
 272.       2.31
 273.       1.88
 274.       2.92
 275.       2.71
 276.       3.03
 277.       2.98
 278.       2.98
 279.       4.47
 280.       3.65
 281.       3.28
 282.       1.42
 283.       3.54
 284.       2.95
 285.       3.50
 286.       3.40
 287.       2.51
 288.       3.27
 289.       3.37
 290.       3.15
 291.       1.78
 292.       3.13
 293.       2.78
 294.       2.97
 295.       3.11
 296.       3.32
 297.       2.18
 298.       4.55
 299.       3.93
 300.       6.24
 301.       9.10
 302.      10.66
 303.       6.65
 304.       5.84
 305.       4.27
 306.       4.89
 307.       4.19
 308.       3.76
 309.       3.82
 310.       4.14
 311.       3.64
 312.       3.60
 313.       4.69
 314.       4.50
 315.       4.18
 316.       3.83
 317.       3.32
 318.       3.43
 319.       4.35
 320.       3.58
 321.       3.46
 322.       3.79
 323.       3.33
 324.       3.95
 325.       3.72
 326.       3.11
 327.       2.96
 328.       3.51
 329.       4.43
 330.       3.39
 331.       4.19
 332.       4.77
 333.       3.91
 334.       3.41
 335.       2.90
 336.       3.65
 337.       3.66
 338.       3.57
 339.       3.90
 340.       3.67
 341.       3.77
 342.       2.78
 343.       3.89
 344.       3.71
 345.       4.10
 346.       3.12
 347.       4.22
 348.       2.64
 349.       3.84
 350.       3.17
 351.       4.28
 352.       3.07
 353.       3.02
 354.       3.72
 355.       3.47
 356.       4.18
 357.       3.70
 358.       3.40
 359.       3.62
 360.       4.28
 361.       4.27
 362.       3.94
 363.       4.56
 364.       4.88
 365.       3.18
 366.       4.40
 367.       4.33
 368.       4.04
 369.       4.28
 370.       3.27
 371.       3.76
 372.       4.44
 373.       4.12
 374.       4.46
 375.       3.66
 376.       3.41
 377.       4.72
 378.       4.01
 379.       3.62
 380.       4.52
 381.       4.00
 382.       3.56
 383.       4.36
 384.       4.89
 385.       4.78
 386.       4.40
 387.       4.50
 388.       4.83
 389.       2.99
 390.       3.63
 391.       4.46
 392.       4.03
 393.       4.80
 394.       4.72
 395.       5.00
 396.       6.07
 397.       9.87
 398.      12.47
 399.      11.89
 400.      10.13
 401.       8.29
 402.       7.12
 403.       7.01
 404.       6.43
 405.       5.04
 406.       4.64
 407.       5.16
 408.       4.54
 409.       4.62
 410.       5.38
 411.       7.55
 412.       7.97
 413.       6.22
 414.       5.95
 415.       5.32
 416.       4.70
 417.       3.92
 418.       4.63
 419.       4.76
 420.       4.65
 421.       4.31
 422.       4.53
 423.       5.03
 424.       4.13
 425.       6.03
 426.       3.85
 427.       4.34
 428.       4.34
 429.       5.04
 430.       5.83
 431.       5.75
 432.       4.47
 433.       3.91
 434.       4.11
 435.       4.62
 436.       3.52
 437.       3.45
 438.       3.44
 439.       3.68
 440.       3.86
 441.       2.72
 442.       2.67
 443.       2.11
 444.       3.06
 445.       4.91
 446.       7.12
 447.       6.38
 448.       6.74
 449.       5.19
 450.       4.82
 451.       4.80
 452.       3.81
 453.       3.82
 454.       3.47
 455.       2.22
 456.       3.25
 457.       1.69
 458.       1.75
 459.       1.60
 460.       2.31
 461.       3.51
 462.       2.40
 463.       2.19
 464.       3.09
 465.       2.47
 466.       2.05
 467.       2.50
 468.       2.99
 469.       2.59
 470.       2.64
 471.      -0.84
 472.       2.48
 473.       3.27
 474.       2.39
 475.       3.11
 476.       2.50
 477.       2.76
 478.       3.58
 479.       2.51
 480.       2.42
 481.       3.37
 482.       3.29
 483.       3.00
 484.       3.22
 485.       3.26
 486.       4.18
 487.       3.33
 488.       3.47
 489.       3.99
 490.       3.56
 491.       1.87
 492.       3.84
 493.       2.54
 494.       3.54
 495.       3.34
 496.       2.30
 497.       2.12
 498.       3.62
 499.       3.40
 500.       3.42
 501.       2.71
 502.       3.38
 503.       2.62
 504.       3.21
 505.       2.80
 506.       4.34
 507.       3.30
 508.       2.85
 509.       3.63
 510.       3.96
 511.       2.31
 512.       3.15
 513.       3.74
 514.       4.14
 515.       3.92
 516.       3.28
 517.       3.19
 518.       3.70
 519.       3.84
 520.       3.48
 521.       3.19
 522.       3.33
 523.       2.53
 524.       3.67
 525.       3.63
 526.       3.91
 527.       4.08
 528.       3.34
 529.       3.61
 530.       1.92
 531.       2.59
 532.       2.73
 533.       2.21
 534.       4.32
 535.       3.81
 536.       4.29
 537.       3.68
 538.       2.63
 539.       3.04
 540.       2.12
 541.       3.14
 542.       4.10
 543.       3.89
 544.       4.09
 545.       3.16
 546.       2.51
 547.       3.00
 548.       3.20
 549.       2.46
 550.       2.89
 551.       3.57
 552.       3.18
 553.       4.00
 554.       2.69
 555.       3.45
 556.       2.64
 557.       3.02
 558.       2.87
 559.       3.08
 560.       4.05
 561.       3.85
 562.       2.91
 563.       3.87
 564.       3.48
 565.       3.31
 566.       2.85
 567.       3.87
 568.       3.55
 569.       3.02
 570.       3.32
 571.       4.34
 572.       4.15
 573.       5.13
 574.       3.67
 575.       3.75
 576.       3.55
 577.       3.02
 578.       3.08
 579.       4.04
 580.       3.33
 581.       4.19
 582.       3.55
 583.       3.38
 584.       3.28
 585.       3.02
 586.       3.96
 587.       3.65
 588.       3.41
 589.       2.87
 590.       3.94
 591.       2.93
 592.       3.70
 593.       3.14
 594.       3.17
 595.       3.07
 596.       3.40
 597.       3.00
 598.       3.24
 599.       3.46
 600.       2.63
 601.       1.75
 602.       3.16
 603.       3.15
 604.       3.33
 605.       2.87
 606.       3.50
 607.       3.75
 608.       2.79
 609.       2.85
 610.       3.92
 611.       3.52
 612.       2.86
 613.       2.90
 614.       2.50
 615.       2.87
 616.       3.27
 617.       2.68
 618.       3.36
 619.       2.32
 620.       2.26
 621.       3.72
 622.       3.58
 623.       4.26
 624.       3.81
 625.       3.58
 626.       3.43
 627.       3.67
 628.       0.87
 629.       2.14
 630.       2.48
 631.       3.03
 632.       2.54
 633.       3.65
 634.       3.71
 635.       3.23
 636.       3.15
 637.       3.84
 638.       3.66
 639.       4.07
 640.       3.95
 641.       3.44
 642.       3.38
 643.       3.04
 644.       3.10
 645.       3.00
 646.       2.74
 647.       2.90
 648.       4.68
 649.       2.81
 650.       1.96
 651.       3.74
 652.       3.18
 653.       3.58
 654.       2.37
ENDDATA            579
ENDSUBENT          599
SUBENT        10727003   20090911   20091127   20091126       1355
BIB                  4          6
REACTION   (82-PB-207(N,TOT),,SIG)
SAMPLE     Sample or nearly isotopically pure 207Pb, sample
            thickness 0.0440 atoms/b.
ERR-ANALYS No information on uncertainties.
STATUS     (TABLE) Data taken from private communication,
                   M. Divadeenam.
ENDBIB               6
NOCOMMON             0          0
DATA                 2        597
EN         DATA
KEV        B
  33.       7.12
  34.       6.94
  35.       6.19
  36.       5.19
  37.       5.39
  38.       6.44
  39.      10.55
  40.      12.76
  41.      12.60
  42.      12.45
  43.      11.92
  44.      11.16
  45.      10.86
  46.      10.20
  47.      10.22
  48.       9.69
  49.       9.68
  50.      10.19
  51.       9.75
  52.       9.90
  53.       9.70
  54.       0.00
  55.      10.02
  56.       9.87
  57.      10.16
  58.      10.49
  59.       9.94
  60.      10.48
  61.       9.57
  62.       0.00
  63.       9.80
  64.       9.22
  65.       9.02
  66.       9.88
  67.       9.62
  68.       9.44
  69.       9.16
  70.       9.44
  71.       9.37
  72.       9.67
  73.       8.86
  74.       9.00
  75.       9.16
  76.       9.51
  77.       8.77
  78.       8.89
  79.       8.63
  80.       8.35
  81.       8.71
  82.       8.76
  83.       8.38
  84.       8.11
  85.       7.40
  86.       7.87
  87.       7.40
  88.       7.32
  89.       7.50
  90.       9.88
  91.       9.58
  92.       8.08
  93.       7.97
  94.       7.56
  95.       7.54
  96.       7.97
  97.       7.90
  98.       9.44
  99.       8.65
 100.       8.13
 101.       7.28
 102.       8.05
 103.       9.15
 104.       9.24
 105.       8.53
 106.       8.98
 107.       8.30
 108.       8.36
 109.       7.52
 110.       8.07
 111.       8.53
 112.       8.53
 113.       9.27
 114.      11.13
 115.      15.08
 116.      12.29
 117.       8.97
 118.       8.61
 119.       7.53
 120.       6.61
 121.       7.09
 122.       7.42
 123.       7.70
 124.       7.82
 125.       7.52
 126.       7.93
 127.       8.19
 128.      11.17
 129.      12.85
 130.      10.28
 131.       9.86
 132.       8.55
 133.       8.60
 134.       9.13
 135.       7.46
 136.       8.15
 137.       8.26
 138.       7.98
 139.       7.32
 140.       8.21
 141.       8.40
 142.       7.68
 143.       6.90
 144.       6.95
 145.       6.95
 146.       7.28
 147.       7.20
 148.       6.57
 149.       5.91
 150.       6.44
 151.       6.57
 152.       0.00
 153.       6.13
 154.       6.79
 155.       6.69
 156.       6.55
 157.       6.95
 158.       7.09
 159.       6.12
 160.       6.29
 161.       7.01
 162.       6.14
 163.       6.96
 164.       5.97
 165.       6.09
 166.       6.46
 167.       6.73
 168.       7.19
 169.       7.79
 170.       7.50
 171.       7.94
 172.       7.80
 173.       6.23
 174.       0.00
 175.       6.99
 176.       5.99
 177.       6.56
 178.       6.15
 179.       6.96
 180.       7.40
 181.       7.50
 182.       8.13
 183.       7.19
 184.       7.12
 185.       6.20
 186.       6.79
 187.       7.48
 188.       6.98
 189.       6.07
 190.       6.64
 191.       6.30
 192.       6.62
 193.       5.88
 194.       6.31
 195.       5.86
 196.       5.79
 197.       5.89
 198.       6.30
 199.       5.75
 200.       5.21
 201.       5.32
 202.       5.76
 203.       6.08
 204.       5.45
 205.       5.42
 206.       5.37
 207.       5.72
 208.       5.83
 209.       7.36
 210.       8.89
 211.       8.56
 212.       6.83
 213.       5.89
 214.       5.32
 215.       4.73
 216.       5.46
 217.       5.83
 218.       6.13
 219.       6.81
 220.       6.17
 221.       6.02
 222.       5.68
 223.       5.24
 224.       6.04
 225.       6.08
 226.       4.78
 227.       5.09
 228.       4.84
 229.       8.65
 231.       7.92
 232.       7.89
 233.       8.12
 234.       7.59
 235.       8.01
 236.       7.74
 237.       7.33
 238.       7.49
 239.       7.40
 240.       7.55
 241.       7.42
 242.       7.27
 243.       6.85
 244.       7.57
 245.       7.01
 246.       6.86
 247.       6.68
 248.       6.89
 249.       7.22
 250.       8.70
 251.       8.26
 252.       7.02
 253.       6.39
 254.       6.44
 255.       7.26
 256.       7.87
 257.       7.72
 258.       9.19
 259.       8.96
 260.       8.62
 261.       8.50
 262.       8.71
 263.       8.02
 264.       8.16
 265.       7.46
 266.       8.26
 267.       7.56
 268.       7.59
 269.       7.59
 270.       6.32
 271.       7.34
 272.       6.98
 273.       6.90
 274.       6.54
 275.       6.90
 276.       6.41
 277.       6.74
 278.       7.13
 279.       6.44
 280.       0.00
 281.       6.12
 282.       6.47
 283.       6.64
 284.       6.16
 285.       7.01
 286.       6.72
 287.       6.65
 288.       6.90
 289.       6.93
 290.       6.80
 291.       6.34
 292.       5.71
 293.       6.06
 294.       6.68
 295.       6.13
 296.       5.97
 297.       6.38
 298.       6.20
 299.       6.77
 300.       6.13
 301.       5.79
 302.       6.67
 303.       0.00
 304.       5.84
 305.       5.85
 306.       5.77
 307.       5.63
 308.       5.95
 309.       5.60
 310.       0.00
 311.       6.31
 312.       5.61
 313.       5.17
 314.       5.76
 315.       6.35
 316.       4.53
 317.       5.42
 318.       7.50
 319.       9.07
 320.      12.68
 321.      12.65
 322.      10.16
 323.       8.33
 324.       7.65
 325.       7.36
 326.       5.35
 327.       5.15
 328.       4.22
 329.       3.80
 330.       4.29
 331.       5.48
 332.       5.20
 333.       0.00
 334.       6.85
 335.       7.01
 336.       7.67
 337.       8.34
 338.       7.89
 339.       6.74
 340.       6.97
 341.       6.09
 342.       6.19
 343.       6.76
 344.       6.90
 345.       0.00
 346.       6.00
 347.       6.42
 348.       6.09
 349.       6.14
 350.       6.31
 351.       6.05
 352.       6.49
 353.       6.60
 354.       6.49
 355.       6.35
 356.       7.26
 357.       7.12
 358.       6.32
 359.       6.30
 360.       6.30
 361.       6.50
 362.       6.44
 363.       6.35
 364.       5.93
 365.       5.43
 366.       5.87
 367.       5.65
 368.       5.50
 369.       5.86
 370.       5.64
 371.       4.86
 372.       5.81
 373.       5.62
 374.       5.57
 375.       4.81
 376.       4.55
 377.       5.52
 378.       6.38
 379.       5.87
 380.       6.41
 381.       6.82
 382.       5.81
 383.       5.59
 384.       5.25
 385.       5.81
 386.       5.85
 387.       6.32
 388.       5.30
 389.       5.83
 390.       5.25
 391.       0.00
 392.       5.42
 393.       5.29
 394.       5.49
 395.       5.73
 396.       5.95
 397.       6.23
 398.       6.18
 399.       5.48
 400.       5.56
 401.       5.76
 402.       5.56
 403.       5.79
 404.       6.30
 405.       5.28
 406.       5.18
 407.       5.52
 408.       5.70
 409.       5.35
 410.       5.13
 411.       5.31
 412.       5.19
 413.       5.16
 414.       5.13
 415.       5.51
 416.       7.82
 417.       8.03
 418.       6.31
 419.       5.32
 420.       4.69
 421.       4.81
 422.       5.46
 423.       4.63
 424.       3.99
 425.       4.64
 426.       4.45
 427.       3.98
 428.       3.79
 429.       5.24
 430.       4.67
 431.       4.76
 432.       4.76
 433.       3.40
 434.       3.32
 435.       3.36
 436.       2.89
 437.       2.41
 438.       3.54
 439.       2.47
 440.       2.19
 441.       2.03
 442.       1.70
 443.       1.48
 444.       1.63
 445.       1.75
 446.       0.90
 447.       1.80
 448.       2.25
 449.       2.32
 450.       2.22
 451.       2.40
 452.       3.31
 453.       3.80
 454.       4.05
 455.       4.26
 456.       4.51
 457.       4.80
 458.       4.27
 459.       4.89
 460.       3.69
 461.       3.95
 462.       3.29
 463.       2.44
 464.       2.10
 465.       0.00
 466.       2.18
 467.       2.53
 468.       3.61
 469.       3.20
 470.       3.49
 471.       3.71
 472.       8.48
 473.      10.16
 474.       8.92
 475.       7.42
 476.       0.00
 477.       5.51
 478.       4.99
 479.       6.07
 480.       4.87
 481.       4.76
 482.       5.11
 483.       5.12
 484.       5.47
 485.       5.36
 486.       5.30
 487.       5.61
 488.       5.63
 489.       5.61
 490.       5.36
 491.       6.17
 492.       5.07
 493.       4.46
 494.       3.29
 495.       3.52
 496.       3.61
 497.       4.69
 498.       5.58
 499.       5.91
 500.       4.90
 501.       5.27
 502.       4.90
 503.       4.93
 504.       5.11
 505.       5.16
 506.       5.86
 507.       5.68
 508.       5.26
 509.       5.12
 510.       5.25
 511.       5.07
 512.       6.07
 513.       5.53
 514.       5.54
 515.       5.58
 516.       5.57
 517.       0.00
 518.       5.80
 519.       5.11
 520.       4.92
 521.       5.92
 522.       5.76
 523.       6.30
 524.       5.57
 525.       5.96
 526.       6.09
 527.       5.34
 528.       5.94
 529.       7.69
 530.       9.31
 531.       7.93
 532.       7.03
 533.       0.00
 534.       6.10
 535.       5.74
 536.       5.25
 537.       5.55
 538.       5.50
 539.       5.99
 540.       5.74
 541.       5.45
 542.       4.97
 543.       3.34
 544.       3.44
 545.       6.00
 546.       5.97
 547.       5.84
 548.       5.34
 549.       6.94
 550.       7.34
 551.       6.48
 552.       5.69
 553.       5.26
 554.       5.37
 555.       4.21
 556.       3.49
 557.       3.93
 558.       5.49
 559.       5.96
 560.       8.15
 561.       7.49
 562.       6.51
 563.       6.18
 564.       5.83
 565.       6.47
 566.       6.07
 567.       5.31
 568.       0.00
 569.       4.88
 570.       5.61
 571.       5.99
 572.       6.30
 573.       5.66
 574.       5.31
 575.       5.39
 576.       5.83
 577.       5.69
 578.       5.33
 579.       5.12
 580.       5.06
 581.       5.84
 582.       5.76
 583.       5.27
 584.       5.01
 585.       5.87
 586.       4.71
 587.       4.94
 588.       5.11
 589.       4.97
 590.       4.99
 591.       4.87
 592.       4.88
 593.       5.26
 594.       5.59
 595.       4.68
 596.       4.97
 597.       4.41
 598.       4.79
 599.       6.67
 600.       5.70
 601.       5.06
 602.       5.03
 603.       5.32
 604.       6.87
 605.       7.04
 606.       6.47
 607.       6.83
 608.       6.58
 609.       5.99
 610.       6.22
 611.       5.68
 612.       5.78
 613.       6.62
 614.       7.03
 615.       7.74
 616.       6.54
 617.       6.76
 618.       6.49
 619.       6.15
 620.       6.07
 621.       5.84
 622.       5.39
 623.       5.26
 624.       4.80
 625.       5.22
 626.       5.01
 627.       5.03
 628.       0.00
 629.       4.51
 630.       4.67
ENDDATA            599
ENDSUBENT          610
SUBENT        10727004   20090911   20091127   20091126       1355
BIB                  7         16
REACTION  1(20-CA-48(N,0),,EN)
          2(20-CA-48(N,0),,L)
          3(20-CA-48(N,0),,J)
          4(20-CA-48(N,TOT),,WID)
SAMPLE     Enriched to 97.08% 48Ca. Calcium oxide sample with
            mass of 2.382-gms and 0.02437 atom/barn in silver
            container with 0.5-inch diameter.
ANALYSIS   (MLA) Multilevel R-matrix analysis. Spins assumed to
            be equal to that of nearest calculated 2p-1h doorway
            state.
ERR-ANALYS  No information on uncertainties.
FLAG       (1.) Uncertain level assignment
           (2.) spin assignment ambiguous. Most likely value used.
STATUS     Source of data unknown (VM, 2009). Data for resonances
            at 302, 399, 412, and 448 keV given in thesis.
HISTORY    (19800420A) Data added.
ENDBIB              16
NOCOMMON             0          0
DATA                 5          9
DATA      1DATA-MIN  2DATA      3DATA      4FLAG
KEV        NO-DIM     NO-DIM     KEV        NO-DIM
 302.25     1.         0.5         3.
 399.       1.         1.5         3.
 412.25     1.         0.5         2.        2.
 430.                  1.5                   1.
 448.       1.         0.5         2.        2.
 956.                  2.5        30.
1305.                  1.5        10.
1334.                  1.5         3.        1.
1355.                  1.5         8.
ENDDATA             11
ENDSUBENT           32
NOSUBENT      10727005   19840716   20091127   20091126       1355
NOSUBENT      10727006   19840716   20091127   20091126       1355
NOSUBENT      10727007   19840716   20091127   20091126       1355
NOSUBENT      10727008   19840716   20091127   20091126       1355
ENDENTRY             8
