ENTRY            10734   20090912   20091127   20091126       1355
SUBENT        10734001   20090912   20091127   20091126       1355
BIB                 14         62
INSTITUTE  (1USAANL)
REFERENCE  (J,NSE,68,360,197812)
           (R,ANL-NDM-83,198310) revisions.
AUTHOR     (J.W.MEadows)
TITLE      The Fission Cross Sections of Plutonium-239 and
            Plutonium-242 Relative to Uranium-235 from 0.1 to 10
            MeV.
FACILITY   (DYNAM,1USAANL) Fast neutron generator
INC-SOURCE (P-LI7) Protons on lithium metal targets evaporated
            onto Ta cups for neutron energies to 5 MeV.
           (D-D) Deuterium gas target 2-cm long at 2 atm pressure
            for neutron energies above 5 MeV.
INC-SPECT  Energy resolution refers to one-half full energy
            spread.  Probable error in median energy about 20%
            delta E.
METHOD     Pulsed beam and fast timing used to reduce and
            measure time independent background.
SAMPLE     Samples deposited on 0.25-mm thick stainless steel
            or 0.12-mm thick Mo plates by electrodeposition or
            vacuum evaporation.  Mass ratios measured by relative
            thermal fission rates of 235U sample and high purity
            239Pu sample. Also measured by absolute alpha
            counting of 239Pu and 235U containing about 1% 234U.
           Isotopic composition (in mole %): 239Pu (99.952),
            240Pu (0.048).
DETECTOR   (IOCH) Samples back-to-back in low mass double
            ionization chamber using methane as counter gas
            placed 5 cm from neutron source.
CORRECTION Corrected for second 7Li(p,n) group, 7Li and d
            break-up neutrons, scattering in detector and
            neutron source assembly, pulse-height distribution
            below bias level.  Sample geometry differences
            eliminated by measurements in both detector
            orientations. Momentum effects reduced by same
            procedure.  Corrections made for remaining
            momentum effects, deposit thickness and fragment
            angular distributions.  Background from (d,n)
            reactions with gas target assembly measured with
            empty gas cell.
ERR-ANALYS1(ERR-S) Statistical uncertainty.
           (ERR-T) Total uncertainty includes statistical errors
            plus errors due to:
            . 234U half life             (0.12%)
            . 239Pu half life            (0.05%)
            . 239Pu/235U thermal ratio   (0.25%)
            . isotope analysis           (0.19%)
            . alpha-counting system      (0.15%)
            . thickness correction       (0.19%)
            . extrapolation              (0.20%)
            . dead-time correction       (0.25%)
            . scattering correction      (0.30%)
            . secondary source reactions (20% of correction)
            . error in neutron energy    (~20% of resolution)
          2No uncertainties given.
STATUS     (TABLE) Data taken from ANL-NDM-83.
           (APRVD) J.W.Meadows, 1984/3/2.
HISTORY    (19780404C)
           (19781107U) BIB corrections
           (19790110A) Reference update. BIB correction.
           (19831230A) Revised as per ANL-NDM-83.
           (20090911A) VM:Updated to new date formats,lower case.
                       BIB updates.
ENDBIB              62
NOCOMMON             0          0
ENDSUBENT           65
SUBENT        10734002   20090912   20091127   20091126       1355
BIB                  3          5
REACTION  1((94-PU-239(N,F),,SIG)/(92-U-235(N,F),,SIG))
          2(94-PU-239(N,F),,SIG)
MONITOR    Ratios normalized between 2.2 and 3.0 MeV.
          2(92-U-235(N,F),,SIG)
HISTORY    (19790110A) BIB correction and addition.
ENDBIB               5
NOCOMMON             0          0
DATA                 6         73
EN         EN-RSL-FW  DATA      1ERR-S     1ERR-T     1DATA      2
MEV        MEV        NO-DIM     PER-CENT   PER-CENT   B
 0.146      0.020      0.968      0.90       1.28       1.417
 0.172      0.019      1.107      1.28       1.57       1.572
 0.197      0.019      1.094      0.90       1.29       1.511
 0.220      0.018      1.131      1.34       1.62       1.519
 0.247      0.017      1.157      0.88       1.25       1.510
 0.268      0.017      1.215      1.28       1.56       1.559
 0.268      0.058      1.191      0.99       1.62       1.529
 0.294      0.022      1.266      1.34       1.62       1.602
 0.311      0.016      1.260      1.38       1.63       1.583
 0.323      0.066      1.264      0.99       1.65       1.580
 0.336      0.016      1.256      1.42       1.66       1.561
 0.348      0.016      1.308      1.46       1.69       1.617
 0.384      0.062      1.286      0.98       1.46       1.565
 0.391      0.062      1.340      1.49       1.83       1.625
 0.452      0.060      1.346      0.94       1.36       1.592
 0.500      0.046      1.372      0.91       1.28       1.601
 0.550      0.045      1.393      0.94       1.27       1.609
 0.598      0.055      1.428      0.80       1.22       1.635
 0.650      0.054      1.418      1.04       1.40       1.616
 0.687      0.053      1.422      1.71       1.95       1.618
 0.746      0.052      1.480      1.05       1.37       1.683
 0.795      0.050      1.546      1.81       2.00       1.760
 0.846      0.049      1.511      1.06       1.39       1.732
 0.877      0.080      1.499      1.86       2.11       1.736
 0.943      0.047      1.431      1.51       1.74       1.712
 0.980      0.047      1.432      1.49       1.70       1.743
 0.993      0.046      1.472      0.94       1.25       1.794
 1.045      0.045      1.416      1.77       1.95       1.721
 1.099      0.044      1.443      0.93       1.26       1.753
 1.140      0.074      1.480      0.95       1.32       1.799
 1.196      0.043      1.467      0.93       1.25       1.789
 1.234      0.072      1.497      0.95       1.34       1.829
 1.332      0.070      1.559      0.95       1.31       1.921
 1.429      0.067      1.603      1.41       1.64       1.992
 1.526      0.065      1.581      1.41       1.64       1.984
 1.622      0.063      1.544      1.45       1.36       1.957
 1.720      0.061      1.503      1.43       1.65       1.924
 1.818      0.059      1.555      1.47       1.68       2.005
 1.893      0.120      1.550      1.19       1.44       2.005
 1.924      0.056      1.551      1.46       1.67       2.009
 2.021      0.054      1.609      1.74       1.92       2.089
 2.232      0.111      1.554      0.68       1.07       2.005
 2.476      0.106      1.518      0.67       1.06       1.929
 2.792      0.101      1.532      0.74       1.10       1.901
 2.975      0.096      1.543      0.57       1.00       1.885
 3.226      0.092      1.544      0.86       1.19       1.851
 3.470      0.087      1.580      0.75       1.11       1.861
 3.719      0.083      1.581      0.72       1.10       1.826
 3.968      0.080      1.568      0.74       1.11       1.779
 4.221      0.076      1.579      1.03       1.33       1.776
 4.472      0.074      1.573      1.11       1.39       1.752
 4.724      0.074      1.607      1.06       1.36       1.752
 4.972      0.070      1.607      1.23       1.51       1.715
 5.017      0.264      1.625      0.92       1.24       1.728
 5.309      0.235      1.640      0.88       1.21       1.718
 5.594      0.211      1.663      0.99       1.29       1.744
 5.867      1.196      1.663      0.96       1.35       1.791
 6.137      0.180      1.609      0.99       1.52       1.894
 6.401      0.172      1.514      1.01       1.50       1.978
 6.660      0.163      1.430      1.04       1.42       2.056
 6.921      0.154      1.388      1.07       1.41       2.120
 7.176      0.146      1.372      1.01       1.33       2.224
 7.432      0.142      1.319      0.99       1.29       2.243
 7.686      0.138      1.312      0.94       1.25       2.299
 7.936      0.133      1.301      0.97       1.27       2.313
 8.182      0.132      1.363      1.00       1.29       2.431
 8.428      0.131      1.316      0.99       1.29       2.347
 8.673      0.131      1.315      0.99       1.29       2.340
 8.918      0.131      1.325      1.02       1.32       2.351
 9.161      0.132      1.307      1.03       1.35       2.313
 9.407      0.133      1.344      0.99       1.33       2.370
 9.648      0.137      1.317      0.97       1.36       2.316
 9.903      0.142      1.308      0.99       1.55       2.288
ENDDATA             75
ENDSUBENT           85
ENDENTRY             2
