ENTRY            10738   20110731   20111215   20111113       1374
SUBENT        10738001   20110731   20111215   20111113       1374
BIB                  9         25
INSTITUTE  (1USABNL,1USASTB,2FR ILL)
REFERENCE  (J,PR/C,21,65,198001)
           (C,72BUD,,216(D3),197208)
AUTHOR     (R.F.Casten,G.J.Smith,M.R.Macphail,D.Breitig,W.R.Kane,
           M.L.Stelts,S.F.Mughabghab,J.A.Cizewski,
           H.G.Boerner,W.F.Davidson,K.Schreckenbach)
TITLE      109Pd: Difficulties in particle-rotor models for
            unique-parity states and revision of spectroscopic
            factors.
METHOD     (COINC) Gamma-ray angular distribution
ANALYSIS   Spin determined from resonance neutron capture gamma
           ray measurement
STATUS     (APRVD) Approved by S.F.Mughabghab, 1978/6/30.
ADD-RES    Results of the average resonance capture experiments
           are presented at 2 and 24 keV. Data are given as
           relative reduced intensities.
HISTORY    (19780609C)
           (19800310A) BIB corrections.
           (20101107A) VM:Updated to new date formats,lower case.
                       Subentries 3-7 added.
           (20110731A) SD: FACILITY deleted from Subent 001,
            it is described in Subents 003-007.BIB updated.
            Subent 007 deleted (data are the same as in given 006
            with flag=1.). Subent 008 added; Subent 002 deleted -
            contained ENSDF information.
ENDBIB              25
NOCOMMON             0          0
ENDSUBENT           28
NOSUBENT      10738002   20110731   20111215   20111113       1374
SUBENT        10738003   20110731   20111215   20111113       1374
BIB                 14         42
REACTION   (46-PD-108(N,G)46-PD-109,,SPC)
               Absolute intensities at 90. degr. in the
                                               compact geometry
             (primary gamma-ray transitions)
FACILITY   (REAC,1USABNL) High Flux Beam Reactor neutron
            monochromator facility.
REL-REF    (I,,W.R.Kane+,C,69STUDSVIK,,105,1969) - Description of
           HFBR
METHOD     (EXTB,FNB) The HFBR neutron monochromator facility
           provided the resonance energy neutrons via Bragg
           diffraction from a large Be crystal.
DETECTOR   (GELI) Germanium-lithium detectors of various sizes;
           typical resolutions were 7 keV at 6 MeV.
           (SPEC) Three crystal pair spectrometer for additional
                  experiment (see ANALYSIS)
SAMPLE     The target consisted of 5.52 grams enriched to 98.11%
           in 108Pd and formed into a rectangle approximately
                                             2.54 cm x 2.86 cm.
           For additional experiment a target of 7.7 g enriched to
           98.11% in 108Pd was used (see ANALYSIS).
INC-SPECT  The thermal flux on target was approximately
                                  7 x 10**7(n/cm2)/sec.
DECAY-MON  (46-PD-109-G,13.46HR,DG,309.1,0.000049,
                           DG,311.4,0.000319,DG,647.3,0.000244)
MONITOR     * To determine the absolute intensities of primary
           gamma-rays, measurements of known decay gamma-rays were
           performed after the neutron irradiations. For the 109Pd
           case, it was considered the 309.1. 311.4, and 647.3 keV
           decay gamma-rays (HL= 13.46 h), whose intensities are
           4.9, 31.9, and 24.4 gamma-rays/10000 109Pd decays.
MONIT-REF  (,F.E.Bertrand+,J,NDS,23,229,1978) - decay data
            used for normalization
ANALYSIS    * To verify several weak E2 primary transitions
           following thermal capture, a separate study of primary
           transitions employing a three crystal pair spectrometer
           was performed on a K filtered beam line.
ERR-ANALYS (DATA-ERR) Relative uncertainties.
           (ERR-1) Uncertainty in absolute intensity scale is
                      given only for one energy
STATUS     (TABLE) Data taken from Table III in PR/C,21,65,1980.
HISTORY    (20101112C) Compiled by S.H.
           (20110731A) SD: MONIT deleted. BIB updated.
ENDBIB              42
COMMON               1          3
EN
EV
 2.96
ENDCOMMON            3
DATA                 5         28
E          E-ERR      DATA       DATA-ERR   ERR-1
KEV        KEV        PC/REAC    PC/REAC    PER-CENT
6154.0      4.0        0.06       0.02
6040.5      1.5        3.36                    24.
5862.7      1.5        0.75       0.08
5827.2      1.5        0.65       0.07
5815.0      1.5        0.21       0.02
5720.3      1.5        0.47       0.05
5662.3      1.5        0.44       0.05
5612.6      1.5        0.17       0.04
5530.0      3.0        1.28       0.13
5508.0      1.5        0.10       0.04
5480.6      1.5        0.47       0.06
5362.6      1.5        1.31       0.13
5307.0      4.0        0.13       0.06
5242.7      1.5        2.82       0.23
5209.1      1.5        1.61       0.16
5199.7      1.5        1.78       0.18
5172.2      1.5        2.95       0.28
5100.0      1.5        0.91       0.013
5063.0      1.5        1.57       0.013
4884.2      1.5        0.51       0.06
4825.6      1.5        0.44       0.05
4795.5      1.5        0.44       0.013
4782.9      1.5        0.72       0.06
4754.8      1.5        0.06       0.02
4676.4      1.5        0.51       0.05
4613.7      1.5        1.21       0.01
4530.1      1.5        0.91       0.01
4506.2      1.5        0.63       0.01
ENDDATA             30
ENDSUBENT           81
SUBENT        10738004   20110731   20111215   20111113       1374
BIB                  9         23
REACTION   ((46-PD-108(N,G)46-PD-109,PAR,DA)//
           (46-PD-108(N,G)46-PD-109,PAR,DA))
            Quantity gives the fully corrected ratio of primary
            intensities obtained from the runs at 90. and
            135. degr. with Ge(Li) counter more distant from the
            target.
             (primary gamma-ray transitions)
FACILITY   (REAC,1USABNL) High Flux Beam Reactor neutron
            monochromator facility.
METHOD     (EXTB,FNB) The HFBR neutron monochromator facility
           provided the resonance energy neutrons via Bragg
           diffraction from a large Be crystal.
SAMPLE     The target consisted of 5.52 grams enriched to 98.11%
           in 108Pd and formed into a rectangle approximately
                                             2.54 cm x 2.86 cm.
INC-SPECT  The thermal flux on target was approximately 7 x
           10**7(n/cm2)/sec.
DETECTOR   (GELI) Germanium-lithium detectors of various sizes;
           typical resolutions were 7 keV at 6 MeV.
ERR-ANALYS (DATA-ERR) Relative uncertainties.
STATUS     (TABLE) Data taken from Table III in PR/C,21,65,1980.
HISTORY    (20101112C) Compiled by S.H.
           (20110731A) SD: BIB updated.
ENDBIB              23
COMMON               3          3
EN         ANG-NM     ANG-DN
EV         ADEG       ADEG
 2.96        90.0       135.0
ENDCOMMON            3
DATA                 4         15
E          E-ERR      DATA       DATA-ERR
KEV        KEV        NO-DIM     NO-DIM
6040.5      1.5        1.42       0.06
5862.7      1.5        0.73       0.07
5827.2      1.5        0.81       0.20
5720.3      1.5        0.80       0.15
5530.0      3.0        0.87       0.09
5362.6      1.5        1.04       0.07
5242.7      1.5        1.08       0.04
5209.1      1.5        0.77       0.06
5199.7      1.5        1.19       0.08
5172.2      1.5        1.09       0.06
5100.0      1.5        0.99       0.20
5063.0      1.5        1.00       0.05
4825.6      1.5        0.43       0.25
4782.9      1.5        1.03       0.15
4613.7      1.5        0.82       0.07
ENDDATA             17
ENDSUBENT           49
SUBENT        10738005   20110731   20111215   20111113       1374
BIB                 15         53
REACTION   (46-PD-108(N,G)46-PD-109,,SPC)
             (primary gamma-ray transitions)
FACILITY   (REAC,1USABNL) High Flux Beam Reactor neutron
            monochromator facility.
REL-REF    (I,,W.R.Kane+,C,69STUDSVIK,,105,1969) - Description of
                                                     HFBR
           (D,,N.C.Rasmussen+,J,ND/B,3,626,1967) -
            For thermal capture, the absolute intensity of the
            strongest primary gamma-ray in 109Pd (Eg=4794.0 keV)
            was determined to be 68.3 +- 7.8 photons/1000 neutron
            captures, which is in disagrement with value of
            30.0 photons/1000 neutron captures derived from
            measurements of Rasmussen+ based on thermal capture
            cross section of 6.1 +-0.4 and 8.3 +-0.8 b (from
            private comm. with J.E.Rambak and E.Steinnes)
            respectively, for Pd and 108Pd.
DECAY-MON  (46-PD-109-G,13.46HR,DG,309.1,0.000049,
                           DG,311.4,0.000319,DG,647.3,0.000244)
MONITOR     * To determine the absolute intensities of primary
           gamma-rays, measurements of known decay gamma-rays were
           performed after the neutron irradiations. For the 109Pd
           case, it was considered the 309.1. 311.4, and 647.3 keV
           decay gamma-rays (HL= 13.46 h), whose intensities are
           4.9, 31.9, and 24.4 gamma-rays/10000 109Pd decays.
MONIT-REF  (,F.E.Bertrand+,J,NDS,23,229,1978) - decay data
            used for normalization
METHOD     (EXTB,FNB) The HFBR neutron monochromator facility
           provided the resonance energy neutrons via Bragg
           diffraction from a large Be crystal.
DETECTOR   (GELI) Germanium-lithium detectors of various sizes;
           typical resolutions were 7 keV at 6 MeV.
           (SPEC) Three crystal pair spectrometer for additional
                  experiment
SAMPLE     The target consisted of 5.52 grams enriched to 98.11%
           in 108Pd and formed into a rectangle approximately
                                             2.54 cm x 2.86 cm.
           For additional experiment a target of 7.7 g enriched to
           98.11% in 108Pd was used (see ANALYSIS).
INC-SPECT  The thermal flux on target was approximately
                                      7 x 10**7 (n/cm2)/sec.
FLAG       (1.) Observed only in the thermal measurement with
                the three crystal spectrometer; below sensitivity
                limit in the other thermal measurement
ANALYSIS    * To verify several weak E2 primary transitions
           following thermal capture, a separate study of primary
           transitions employing a three crystal pair spectrometer
           was performed on a K filtered beam line.
ERR-ANALYS (DATA-ERR) Relative uncertainties.
           (ERR-1) uncertainty in absolute intensity scale is
                      given only for one energy
STATUS     (TABLE) Data taken from Table IV in PR/C,21,65,1980.
HISTORY    (20101112C) Compiled by S.H.
           (20110731A) SD: MONIT deleted. BIB updated.
ENDBIB              53
COMMON               1          3
EN
EV
 0.0253
ENDCOMMON            3
DATA                 6         28
E          E-ERR      DATA       DATA-ERR   ERR-1      FLAG
KEV        KEV        PC/REAC    PC/REAC    PER-CENT   NO-DIM
  6152.9    0.8        0.11       0.02
  5887.5    0.8        0.75       0.14
  5828.6    0.8        1.91       0.20
  5720.3    0.8        2.12       0.20
  5661.9    0.8        0.18       0.13
  5612.9    0.8        0.09       0.04
  5480.3    0.8        1.29       0.14
  5431.7    0.8        1.17       0.14
  5211.8    0.8        2.74       0.28
  5171.6    0.8        0.30       0.12
  5099.7    0.8        0.75       0.06
  5041.6    0.8        0.25       0.11
  5018.9    0.8        0.58       0.06
  5006.1    0.8        0.64       0.06
  4920.3    0.8        1.78       0.20
  4909.5    0.8        0.43       0.15
  4885.3    1.1        0.07       0.04                    1.
  4794.0    0.8        6.82                    12.
  4775.7    0.8        1.17       0.42
  4755.4    0.8        1.57       0.41
  4674.1    0.8        0.66       0.15
  4668.5    0.8        0.21       0.04                    1.
  4616.5    0.8        0.51       0.25
  4552.1    0.8        0.60       0.15
  4538.0    0.8        0.65       0.19
  4509.2    0.8        1.09       0.41
  4469.9    0.8        0.42       0.17
  4443.7    0.8        0.75       0.28
ENDDATA             30
ENDSUBENT           92
SUBENT        10738006   20110731   20111215   20111113       1374
BIB                 11         47
REACTION   (46-PD-108(N,G)46-PD-109,,SPC)
             (secondary gamma-ray transitions)
FACILITY   (REAC,1USABNL) High Flux Beam Reactor neutron
            monochromator facility.
           (REAC,2FR ILL) High Flux Beam Reactor
INC-SPECT  At BNL the thermal flux on target was approximately
                                  7 x 10**7(n/cm2)/sec.
           At ILL the thermal flux on target was
                                          5.5 x 10**14 n/cm2/sec
SAMPLE     At BNL the target consisted of 5.52 grams enriched to
           98.11% in 108Pd and formed into a rectangle
                        approximately 2.54 cm x 2.86 cm.
           At ILL the target was an in-pile laminar sample of
           ~70 mg of enriched 108Pd
REL-REF    (I,,H.Boerner+,C,74PETTEN,,691,1974) -
                                           description of GAMS
MONITOR    The GAMS data were energy calibrated internally by
           demanding that a line have the same energy in all
           orders of reflection in which it is observed. Absolute
           energy calibration is performed by reference to the
           88.034 keV 109Ag line.
           Since the GAMS target is viewed end on by the
           spectrometers, the self-absorption corrections can be
           large. For this reason the adopted intensities for the
           low energy gamma-rays were obtained by plotting the
           ratio of Ge(Li) intensities to those measured by the
           GAMS spectrometers, and by using the values for strong
           transitions to define a relative effective GAMS
           efficiency curve (including automatically the
           self-absorption correction) and by using this curve to
           normalize all GAMS intensities to the Ge(Li) intensity
           scale.
           The observed gamma-ray energies are obtained from the
           curved-crystal spectrometer experiments.
MONIT-REF  (,R.G.Helmer+,J,NIM,155,189,1975) - reference to the
                                      88.034 keV 109Ag line.
DETECTOR   (GELI) Germanium-lithium detector, yields determined
                  using Ge(Li) detector at BNL
           (SPEC)  extremely high energy precision (typically
            2-25eV) and resolution GAMS1 and GAMS2/3 curved
            crystal spectrometers at ILL
ERR-ANALYS (DATA-ERR) Relative uncertainties.
           (ERR-1) Absolute intensity scale uncertainty
STATUS     (TABLE) Data taken from Table V in PR/C,21,65,1980.
HISTORY    (20101112C) Compiled by S.H.
           (20110731A) SD: MONIT deleted. BIB updated. A few
           values in DATA and DATA-ERR corrected.
ENDBIB              47
COMMON               2          3
EN-DUMMY   ERR-1
EV         PER-CENT
 0.0253      15.
ENDCOMMON            3
DATA                 4        143
E          E-ERR      DATA       DATA-ERR
KEV        KEV        PC/REAC    PC/REAC
     94.450      0.001       3.47       0.35
     98.258      0.003       1.65       0.17
    106.694      0.003       0.10       0.02
    108.280      0.001       0.49       0.06
    113.401      0.002       29.7        3.0
    149.854      0.003       0.10       0.01
    152.942      0.001       9.52       0.95
    166.306      0.004       0.22       0.04
    170.561      0.001       0.24       0.02
    178.034      0.001       7.20       0.72
    187.115      0.004       0.10       0.01
    188.990      0.001       1.65       0.17
    189.920      0.003       0.28       0.04
    197.333      0.008       0.06       0.01
    200.153      0.004       1.20       0.12
    202.971      0.013       0.03       0.01
    207.697      0.003       0.03       0.01
    211.884      0.003       3.36       0.34
    213.806      0.004       0.18       0.03
    215.390      0.002       0.67       0.07
    216.487      0.009       0.05       0.01
    222.922      0.006       0.06       0.01
    224.717      0.007       0.06       0.01
    228.194      0.004       0.07       0.01
    230.453      0.002       0.28       0.03
    245.080      0.002       15.4        1.5
    249.238      0.011       1.94       0.19
    263.403      0.006       0.20       0.04
    264.378      0.011       0.14       0.04
    264.980      0.003       1.34       0.13
    266.346      0.003       2.75       0.28
    267.610      0.005       0.22       0.04
    274.328      0.007       0.06       0.01
    276.296      0.005       3.26       0.33
    288.480      0.005       0.22       0.03
    291.430      0.004       6.03       0.60
    295.597      0.003       0.14       0.03
    298.197      0.005       1.26       0.13
    299.119      0.005       0.19       0.03
    317.255      0.006       0.18       0.04
    320.164      0.005       2.78       0.28
    321.082      0.015       0.09       0.05
    325.284      0.004      12.20       0.12
    326.868      0.004       4.89       0.49
    332.050      0.005       0.32       0.06
    333.964      0.003       6.41       0.64
    336.584      0.003       2.10       0.21
    337.828      0.005       0.12       0.03
    339.528      0.004      11.40       0.11
    343.869      0.009       0.19       0.04
    346.622      0.006       0.06       0.01
    347.192      0.006       0.18       0.03
    355.694      0.006       0.15       0.05
    357.148      0.009       0.06       0.01
    358.697      0.010       0.85       0.11
    359.426      0.006       6.87       0.69
    365.295      0.007       0.06       0.03
    371.125      0.010       0.24       0.04
    377.004      0.013       0.18       0.03
    378.191      0.005       2.43       0.24
    386.752      0.040       0.11       0.03
    392.395      0.025       0.04       0.01
    395.171      0.017       0.29       0.04
    396.758      0.011       1.02       0.10
    407.124      0.010       0.15       0.04
    414.342      0.007       0.60       0.06
    416.738      0.020       0.04       0.01
    418.298      0.007       0.18       0.03
    421.049      0.011       0.15       0.03
    426.135      0.004       1.17       0.12
    428.396      0.003       1.90       0.19
    433.552      0.004       5.89       0.59
    436.185      0.011       0.06       0.01
    438.160      0.012       0.14       0.03
    441.839      0.009       0.23       0.05
    452.524      0.016       0.08       0.01
    455.702      0.005       0.77       0.08
    461.194      0.007       1.31       0.13
    464.541      0.009       0.16       0.03
    466.511      0.010       0.22       0.05
    467.333      0.012       0.10       0.05
    485.311      0.007       0.51       0.06
    491.575      0.010       0.96       0.10
    515.128      0.013       0.57       0.08
    520.597      0.010       0.43       0.06
    525.078      0.016       0.14       0.03
    526.411      0.021       0.05       0.01
    530.202      0.010       0.26       0.04
    539.345      0.031       0.06       0.03
    540.697      0.010       0.31       0.07
    554.589      0.044       0.08       0.03
    555.614      0.013       0.18       0.03
    566.672      0.020       0.04       0.03
    579.896      0.030       0.08       0.03
    584.505      0.051       0.05       0.02
    585.908      0.015       0.15       0.03
    601.575      0.006       1.56       0.18
    604.530      0.006       0.55       0.07
    608.672      0.009       0.18       0.04
    612.047      0.012       0.21       0.04
    619.939      0.028       0.54       0.09
    620.441      0.016       0.52       0.08
    623.468      0.016       0.62       0.10
    628.887      0.018       0.27       0.04
    632.363      0.018       0.16       0.03
    634.907      0.023       0.29       0.05
    645.963      0.044       0.08       0.03
    649.650      0.029       0.05       0.02
    653.504      0.036       0.08       0.03
    654.892      0.016       0.19       0.04
    655.501      0.016       0.31       0.05
    657.569      0.029       0.44       0.05
    660.128      0.031       0.06       0.03
    670.089      0.058       0.07       0.04
    673.607      0.040       0.10       0.03
    674.725      0.030       0.30       0.04
    678.040      0.035       0.16       0.03
    678.673      0.041       0.12       0.03
    680.968      0.033       0.18       0.03
    685.909      0.024       2.28       0.23
    690.300      0.026       0.44       0.05
    695.949      0.032       0.22       0.03
    705.433      0.047       0.08       0.03
    711.400      0.056       0.13       0.04
    713.389      0.020       0.38       0.05
    722.025      0.027       1.40       0.14
    726.740      0.024       0.55       0.06
    754.908      0.022       2.67       0.27
    772.096      0.020       0.44       0.06
    787.314      0.034       0.23       0.05
    791.429      0.031       0.35       0.05
    793.570      0.023       0.34       0.05
    799.265      0.051       0.51       0.06
    810.547      0.013       1.45       0.22
    815.228      0.024       0.36       0.08
    820.242      0.025       0.33       0.07
    831.571      0.015       1.17       0.18
    840.759      0.027       0.46       0.14
    846.328      0.013       1.11       0.28
    902.981      0.038       0.34       0.05
    911.283      0.024       0.40       0.07
    966.439      0.024       0.78       0.08
   1019.868      0.027       1.25       0.13
ENDDATA            145
ENDSUBENT          201
NOSUBENT      10738007   20110731   20111215   20111113       1374
SUBENT        10738008   20110731   20111215   20111113       1374
BIB                 11         45
REACTION   (46-PD-108(N,G)46-PD-109,,SPC)
             (secondary gamma-ray transitions)
FACILITY   (REAC,1USABNL) High Flux Beam Reactor neutron
            monochromator facility.
           (REAC,2FR ILL) High Flux Beam Reactor
INC-SPECT  At BNL the thermal flux on target was approximately
                                  7 x 10**7(n/cm2)/sec.
           At ILL the thermal flux on target was
                                          5.5 x 10**14 n/cm2/sec
SAMPLE     At BNL the target consisted of 5.52 grams enriched to
           98.11% in 108Pd and formed into a rectangle
                        approximately 2.54 cm x 2.86 cm.
           At ILL the target was an in-pile laminar sample of
           ~70 mg of enriched 108Pd
REL-REF    (I,,H.Boerner+,C,74PETTEN,,691,1974) -
                                           description of GAMS
MONITOR    The GAMS data were energy calibrated internally by
           demanding that a line have the same energy in all
           orders of reflection in which it is observed. Absolute
           energy calibration is performed by reference to the
           88.034 keV 109Ag line.
           Since the GAMS target is viewed end on by the
           spectrometers, the self-absorption corrections can be
           large. For this reason the adopted intensities for the
           low energy gamma-rays were obtained by plotting the
           ratio of Ge(Li) intensities to those measured by the
           GAMS spectrometers, and by using the values for strong
           transitions to define a relative effective GAMS
           efficiency curve (including automatically the
           self-absorption correction) and by using this curve to
           normalize all GAMS intensities to the Ge(Li) intensity
           scale.
           The observed gamma-ray energies are obtained from the
           curved-crystal spectrometer experiments.
MONIT-REF  (,R.G.Helmer+,J,NIM,155,189,1975) - reference to the
                                      88.034 keV 109Ag line.
DETECTOR   (GELI) Germanium-lithium detector, yields determined
                  using Ge(Li) detector at BNL
           (SPEC)  extremely high energy precision (typically
            2-25eV) and resolution GAMS1 and GAMS2/3 curved
            crystal spectrometers at ILL
ERR-ANALYS (DATA-ERR) Relative uncertainties.
           (ERR-1) Absolute intensity scale uncertainty
STATUS     (TABLE) Data taken from Table V in PR/C,21,65,1980.
HISTORY    (20110731C) SD
ENDBIB              45
COMMON               2          3
EN         ERR-1
EV         PER-CENT
 2.96         25.
ENDCOMMON            3
DATA                 6        115
E          E-ERR      E          E-ERR      DATA       DATA-ERR
KEV        KEV        KEV        KEV        PC/REAC    PC/REAC
     94.450      0.001                             1.54       0.15
     98.258      0.003                             2.18       0.22
    106.694      0.003                             0.08       0.03
    108.280      0.001                             0.21       0.03
    113.401      0.002                             18.7        1.9
    149.854      0.003                             0.18       0.02
    152.942      0.001                             4.19       0.42
    166.306      0.004                             0.19       0.04
    170.561      0.001                             0.29       0.06
    178.034      0.001                             6.10       0.61
    188.990      0.001                             1.92       0.19
    189.920      0.003                             0.26       0.04
    197.333      0.008                             0.06       0.03
    200.153      0.004                             0.98       0.10
    202.971      0.013                             0.07       0.02
    207.697      0.003                             0.07       0.02
    211.884      0.003                             1.77       0.18
    213.806      0.004                             0.14       0.02
    215.390      0.002                             0.59       0.06
    216.487      0.009                             0.03       0.02
    222.922      0.006                             0.08       0.03
    228.194      0.004                             0.17       0.02
    230.453      0.002                             0.14       0.02
    245.080      0.002                             8.27       0.83
    249.238      0.011                             1.78       0.18
    263.403      0.006                             0.06       0.04
    264.378      0.011                             0.09       0.08
    264.980      0.003                             0.56       0.06
    266.346      0.003                             1.29       0.13
    274.328      0.007                             0.07       0.02
    276.296      0.005                             6.96       0.70
    288.480      0.005                             0.13       0.03
    291.430      0.004                             4.99       0.50
    295.597      0.003                             0.08       0.02
    298.197      0.005    299.119      0.005       1.06       0.11
    317.255      0.006                             0.11       0.03
    320.164      0.005                             1.72       0.17
    325.284      0.004                             7.05       0.71
    326.868      0.004                             4.05       0.41
    332.050      0.005                             0.32       0.04
    333.964      0.003                             2.46       0.25
    336.584      0.003                             0.60       0.06
    337.828      0.005                             0.09       0.05
    339.528      0.004                             5.00       0.50
    343.869      0.009                             0.15       0.03
    346.622      0.006    347.192      0.006       0.10       0.02
    358.697      0.010    359.426      0.006       3.19       0.32
    365.295      0.007                             0.08       0.02
    371.125      0.010                             0.14       0.03
    377.004      0.013                             0.06       0.03
    378.191      0.005                             1.77       0.18
    395.171      0.017                             0.18       0.03
    396.758      0.011                             0.51       0.05
    407.124      0.010                             0.16       0.03
    414.342      0.007                             0.40       0.04
    416.738      0.020                             0.14       0.03
    418.298      0.007                             0.35       0.04
    421.049      0.011                             0.32       0.03
    426.135      0.004                             2.71       0.27
    428.396      0.003                             0.71       0.07
    433.552      0.004                             3.24       0.32
    441.839      0.009                             0.32       0.05
    455.702      0.005                             0.42       0.04
    461.194      0.007                             0.40       0.04
    464.541      0.009                             0.25       0.04
    466.511      0.010    467.333      0.012       0.32       0.04
    485.311      0.007                             0.30       0.04
    491.575      0.010                             0.70       0.07
    515.128      0.013                             0.71       0.07
    520.597      0.010                             0.67       0.07
    525.078      0.016                             0.26       0.06
    526.411      0.021                             0.17       0.06
    530.202      0.010                             0.09       0.06
    539.345      0.031                             0.17       0.15
    540.697      0.010                             0.26       0.14
    554.589      0.044    555.614      0.013       0.46       0.05
    579.896      0.030                             0.13       0.03
    584.505      0.051    585.908      0.015       0.27       0.04
    601.575      0.006                             0.39       0.04
    604.530      0.006                             0.26       0.04
    608.672      0.009                             0.17       0.03
    612.047      0.012                             0.12       0.03
    619.939      0.028    620.441      0.016       0.89       0.09
    623.468      0.016                             0.50       0.05
    628.887      0.018                             0.30       0.04
    632.363      0.018                             0.11       0.03
    634.907      0.023                             0.82       0.08
    645.963      0.044                             0.14       0.04
    653.504      0.036    655.501      0.016       0.55       0.06
    657.569      0.029                             0.64       0.06
    673.607      0.040    674.725      0.030       0.13       0.03
    678.040      0.035    678.673      0.041       0.41       0.04
    680.968      0.033                             0.20       0.03
    685.909      0.024                             0.34       0.03
    690.300      0.026                             1.53       0.15
    695.949      0.032                             0.08       0.03
    705.433      0.047                             0.25       0.04
    713.389      0.020                             0.41       0.04
    722.025      0.027                             0.68       0.07
    726.740      0.024                             0.51       0.06
    754.908      0.022                             0.32       0.04
    772.096      0.020                             0.13       0.03
    787.314      0.034                             0.15       0.03
    791.429      0.031                             0.48       0.05
    793.570      0.023                             0.18       0.03
    799.265      0.051                             0.41       0.04
    810.547      0.013                             0.74       0.07
    815.228      0.024                             0.28       0.03
    820.242      0.025                             0.18       0.03
    831.571      0.015                             1.82       0.18
    840.759      0.027                             0.57       0.06
    846.328      0.013                             1.58       0.16
    911.283      0.024                             1.44       0.14
    966.439      0.024                             0.19       0.04
   1019.868      0.027                             0.17       0.03
ENDDATA            117
ENDSUBENT          171
ENDENTRY             8
