ENTRY            10748     780714
SUBENT        10748001     780714
BIB                  8         12
INSTITUTE  (1USAORL)
REFERENCE  (J,PR/C,7,1532,7304)
AUTHOR     (O.WASSON,B.J.ALLEN,R.R.WINTERS,R.L.MACKLIN,J.A.HARVEY)
TITLE      NEUTRON RESONANCE PARAMETERS OF MO-92.
FACILITY   (LINAC) OAK RIDGE ELECTRON LINEAR ACCELERATOR
METHOD     (TOF) TIME-OF-FLIGHT.
STATUS     **** CAPTURE CROSS SECTION REQUIRES A CORRECTION
                BY A FACTOR OF 0.9507 DUE TO ERROR IN PROCESSING
                CODE (PRIVATE COMMUNICATION, MACKLIN AND WINTERS,
                9/24/80).
HISTORY    (780609C)
           (801205A) STATUS COMMENT ADDED.
ENDBIB              12
NOCOMMON             0          0
ENDSUBENT           15
SUBENT        10748002     780714
BIB                  5          6
REACTION   (42-MO-92(N,TOT),,SIG,,RAW) TRANSMISSIONS
SAMPLE     97.37 PERCENT MO-92. SAMPLE THICKNESSES 0.156,0.0297,
            0.00318 ATOMS/B.
METHOD     (TOF) TIME-OF-FLIGHT. 78-M FLIGHT PATH.
DETECTOR   (GLASD) LI-6 GLASS DETECTOR.
STATUS     (UNOBT) DATA NOT AVAILABLE AT NNDC
ENDBIB               6
COMMON               2          3
EN-MIN     EN-MAX
KEV        KEV
  3.        40.
ENDCOMMON            3
NODATA
ENDSUBENT           14
SUBENT        10748003     780714
BIB                  6          7
REACTION   (42-MO-92(N,G)42-MO-93,,SIG,,RAW) CAPTURE YIELDS
SAMPLE     5.92-G SAMPLE ENRICHED TO 94.73 PERCENT MO-92.
            SAMPLE THICKNESS 0.0056 ATOMS/B.
METHOD     (TOF) TIME-OF-FLIGHT. 40-M FLIGHT PATH.
DETECTOR   (SCIN) 2 FLUOROCARBON LIQUID SCINTILLATORS
CORRECTION CORRECTED FOR DEAD TIME.
STATUS     (UNOBT) DATA NOT AVAILABLE AT NNDC
ENDBIB               7
COMMON               2          3
EN-MIN     EN-MAX
KEV        KEV
 3.         40.
ENDCOMMON            3
NODATA
ENDSUBENT           15
SUBENT        10748004     790702
BIB                  5         25
REACTION  1(42-MO-92(N,0),,EN)
          2(42-MO-92(N,0),,J)
          3(42-MO-92(N,0),,L)
          4(42-MO-92(N,EL),,WID,,G)
          5(((42-MO-92(N,EL),,WID,,G)*(42-MO-92(N,G),,WID))/
           (42-MO-92(N,TOT),,WID))
          6(42-MO-92(N,G),,WID)
          7(42-MO-92(N,EL),,WID/RED)
          8(42-MO-92(N,EL),,WID/RED,,G)
ANALYSIS   (AREA)
           DETERMINED G * NEUTRON WIDTH FROM TRANSMISSION AND
            (G * NEUTRON WIDTH * CAPTURE WIDTH) / TOTAL WIDTH
            FROM CAPTURE
           SPINS AND PARITIES ARE DETERMINED USING THREE
            DIFFERENT METHODS -
             1. CAPTURE GAMMA-RAY SPECTRA AND ANGULAR
               DISTRIBUTIONS.
             2. DIP SHAPES FROM TRANSMISSION DATA.
             3. TOTAL RADIATIVE WIDTH VALUES AND STATISTICAL
               ARGUEMENTS.
ERR-ANALYS NO INFORMATION
FLAG       (1.) POSSIBLE COMPLEX PEAK.
           (2.) SPIN ASSIGNMENT UNCERTAIN.
           (3.) RADIATION WIDTH GIVEN IN ARTICLE IS INCORRECT.
HISTORY    (790702A) BIB ADDITION. DATA CORRECTED.
ENDBIB              25
NOCOMMON             0          0
DATA                14         43
DATA      1DATA      2DATA      3DATA      4DATA-ERR  4DATA      5
DATA-ERR  5DATA      6DATA-ERR  6DATA      7DATA-ERR  7DATA      8
DATA-ERR  8FLAG
KEV        NO-DIM     NO-DIM     EV         EV         EV
EV         EV         EV         EV         EV         EV
EV         NO-DIM
  0.347     0.5        0.          0.0079     0.0015
                                   0.00042    0.00007

  1.86      1.5        1.          0.043      0.010
                                                        0.25
  0.06
  2.32      1.5        1.          0.045      0.006
                                                        0.58
  0.10
  3.06      0.5        1.          0.068      0.010     0.064
  0.006                                                 0.19
  0.02      2.
  3.17      0.5        0.          7.8        0.6       0.210
  0.020     0.21       0.02        0.138      0.12

  4.29      1.5        1.          1.05       0.20      0.303
  0.035     0.21       0.07                             1.76
  0.20
  5.58      1.5        1.          0.50       0.05      0.274
  0.027     0.30       0.05                             0.56
  0.05
  6.03      1.5        1.          0.58       0.15      0.313
  0.031     0.34       0.20                             0.57
  0.15
  6.48      0.5        1.          1.10       0.10      0.090
  0.013     0.097      0.010                            0.97
  0.10      2.
  6.81      0.5        0.          0.58       0.05      0.130
  0.013     0.159      0.030       0.0070     0.0012

  7.12      0.5        0.          0.52       0.10      0.122
  0.013     0.150      0.03        0.0062     0.0012

  8.80      1.5        1.          2.5        0.5       0.282
  0.030     0.16       0.02                             1.4
  0.3       2.
  8.92      0.5        1.          3.5        0.3       0.200
  0.020     0.21       0.03                             2.0
  0.4       2.
  9.13      0.5        1.          1.6        0.3       0.184
  0.018     0.21       0.04                             0.86
  0.16      2.
 10.6       1.5        1.          0.46       0.07      0.285
  0.030     0.37       0.10                             0.20
  0.04
 11.1       1.5        1.          0.36       0.06      0.188
  0.019     0.195      0.070                            0.14
  0.03      2.
 11.5       0.5        0.         11.0        1.5       0.184
  0.020     0.185      0.019       0.103      0.014

 12.8       1.5        1.          0.22       0.03      0.186
  0.020                                                 0.07
  0.01
 13.7       0.5        0.         32.0        3.0       0.132
  0.020     0.132      0.020      0.273       0.027

 14.1       0.5        1.          5.2        0.4       0.151
  0.015     0.155      0.016                            1.50
  0.13      2.
 14.5       1.5        1.          0.22       0.04      0.146
  0.016                            0.0018     0.0003    0.10
  0.02
 15.67      0.5        1.          6.0        1.4       0.167
  0.020     0.172      0.02                             1.44
  0.34      2.
 15.72      1.5        1.          1.9        0.7       0.278
  0.25      0.16       0.04                             0.46
  0.15      2.
 16.5       0.5        0.         62.5        6.0       0.166
  0.018     0.166      0.017       0.486      0.050

 17.3       1.5        1.          0.25       0.07      0.151
  0.375     0.15                                        0.05
  0.02
 18.0       1.5        1.          0.80       0.30      0.230
  0.020     0.165      0.040                            0.15
  0.06      2.
 18.1                  1.          4.0        0.15      0.196
  0.020                                                 0.82
  0.30
 19.2       1.5        1.          6.0        1.5       0.340
  0.034     0.18       0.02                             1.04
  0.25      2.
 20.3       0.5        0.          0.49       0.20      0.121
  0.015     0.16       0.04        0.003      0.001
            2.
 20.6       0.5        1.          0.50       0.22      0.115
  0.015     0.15       0.03                             0.06
  0.02      2.
 20.7                              0.14       0.06      0.117
  0.015

 21.1       0.5        0.          31.        3.0       0.177
  0.020     0.177      0.02        0.21       0.02
 3.
 21.7                  1.          0.27       0.05      0.245
  0.025                                                 0.04
  0.01
 23.9       1.5        1.         15.2        1.5       0.711
  0.090     0.355      0.04                             2.0
  0.2       2.
 25.5       1.5        1.          8.4        0.8       0.307
  0.030     0.16       0.015                            1.0
  0.1       2.
 25.8       0.5        0.         36.5        4.0       0.166
  0.017     0.166      0.017      0.23        0.03

 26.2                  1.         73.0        5.0       1.46
  0.20                                                  8.0
  0.6       1.
 28.0                  1.         13.0        0.6       0.654
  0.080                                                 1.3
  0.16      1.
 28.7                  1.         26.0        1.9       0.221
  0.022                                                 2.6
  0.2
 29.8       0.5        0.         37.0        3.6       0.199
  0.020     0.199      0.020       0.21       0.02

 30.1                  1.          0.63       0.032     0.343
  0.035                                                 0.06
  0.03
 30.3       0.5        1.          5.6        0.8       0.124
  0.015     0.127      0.016                            0.53
  0.07      2.
 31.1       0.5        0.         57.0        3.0       0.260
  0.030      0.26       0.03       0.32       0.02

ENDDATA            135
ENDSUBENT          165
SUBENT        10748005     780714
BIB                  3          9
REACTION  1(42-MO-92(N,EL),,STF)
          2(42-MO-92(N,G),,WID,,AV)
ANALYSIS   S WAVE NEUTRON STRENGTH FUNCTION OBTAINED FOR 12
            RESONANCES.
           P WAVE NEUTRON STRENGTH FUNCTION OBTAINED FOR 25
            RESONANCES.
           S WAVE RADIATION WIDTHS OBTAINED FROM 11 RESONANCES.
           P WAVE RADIATION WIDTHS OBTAINED FROM 18 RESONANCES.
ERR-ANALYS ERRORS ARE DUE TO THE LIMITTED STATISTICAL SAMPLE SIZE
ENDBIB               9
NOCOMMON
DATA                 7          2
EN-MIN     EN-MAX     DATA      1DATA-ERR  1DATA      2DATA-ERR  2
MOMENTUM L
KEV        KEV        NO-DIM     NO-DIM     EV         EV
NO-DIM
   .347      31.1       0.65  -04  0.26  -04   0.178     0.015
  0.
  1.86       30.3       3.3   -04  1.1   -04   0.24      0.03
  1.
ENDDATA              8
ENDSUBENT           22
ENDENTRY             5
