ENTRY            10746   20091105   20100405   20100330       1360
SUBENT        10746001   20091105   20100405   20100330       1360
BIB                 12         17
INSTITUTE  (1USAORL)
REFERENCE  (J,PR/C,7,780,197302)
AUTHOR     (O.A.Wasson,B.J.Allen)
TITLE      P-Wave Resonances in 111Cd(n,gamma)112Cd
FACILITY   (LINAC,1USAORL) ORELA
INC-SOURCE (EVAP) Electrons on water-cooled tantalum target.
SAMPLE     The sample consisted of 16.6 g of Cd enriched to
            97.5% in 111Cd.
METHOD     (TOF) Time of flight
DETECTOR   (SCIN) Liquid-scintillator gamma-ray detector.
MONITOR    Detector efficiency determined using saturated
            resonance technique on the 4.9-eV Au resonance.
CORRECTION Corrections made for self-shielding and multiple
            scattering.
HISTORY    (19780615C)
           (20091105A) VM:Updated to new date formats,lower case.
                       BIB updates.
ENDBIB              17
NOCOMMON             0          0
ENDSUBENT           20
SUBENT        10746002   20091105   20100405   20100330       1360
BIB                  5         11
REACTION  1(48-CD-111(N,0),,EN)
          2(48-CD-111(N,EL),,WID/STR)
          3(48-CD-111(N,EL),,WID/RED)
          4(48-CD-111(N,0),,L)
ANALYSIS   Resonance widths obtained from capture yields, momenta
            determined from neutron widths and gamma spectra.
           The reduced neutron widths of the unassigned
            resonances are arbitrarily assigned as s-wave.
ERR-ANALYS No information on uncertainties.
STATUS     (TABLE) Data taken from Table I in reference.
HISTORY   2(20001105A) Reaction updated.
ENDBIB              11
NOCOMMON             0          0
DATA                 5        140
DATA      1DATA      2DATA      3DATA      4MOMENTUM L
KEV        EV         EV         NO-DIM     NO-DIM
   0.276     0.0084     0.51        0.0
   0.287     0.00034    0.032       1.0
   0.313     0.0017     0.10                   0.
   0.314     0.0004     0.02                   0.
   0.332     0.0042     0.23        0.0
   0.337     0.0008     0.04                   0.
   0.357     0.020      1.06        0.0
   0.390     0.0109     0.55        0.0
   0.411     0.0009     0.049       1.0
   0.424     0.0002     0.010       1.0
   0.439     0.0050     0.24        0.0
   0.444     0.0003     0.01                   0.
   0.454     0.0002     0.01                   0.
   0.467     0.0005     0.019       1.0
   0.479     0.0024     0.11                   0.
   0.484     0.0008     0.04                   0.
   0.485     0.0012     0.049       1.0
   0.519     0.0003     0.02                   0.
   0.531     0.0008     0.03                   0.
   0.542     0.0115     0.49        0.0
   0.545     0.0008     0.03                   0.
   0.549     0.0028     0.12                   0.
   0.553     0.0001     0.005       1.0
   0.565     0.0001     0.004       1.0
   0.569     0.0006     0.03                   0.
   0.577     0.0166     0.69        0.0
   0.584     0.0004     0.02                   0.
   0.600     0.0009     0.04                   0.
   0.605     0.0148     0.60        0.0
   0.608     0.0002     0.01                   0.
   0.624     0.0181     0.72        0.0
   0.655     0.0009     0.04                   0.
   0.672     0.0013     0.05                   0.
   0.687     0.0001     0.004                  0.
   0.690     0.0017     0.06                   0.
   0.708     0.0022     0.08                   0.
   0.738     0.0094     0.35        0.0
   0.741     0.0009     0.019       1.0
   0.766     0.0087     0.31        0.0
   0.785     0.0010     0.04                   0.
   0.793     0.0194     0.69        0.0
   0.811     0.0205     0.72        0.0
   0.838     0.0002     0.007                  0.
   0.845     0.0004     0.01                   0.
   0.860     0.0007     0.013       1.0
   0.863     0.0069     0.23                   0.
   0.878     0.0023     0.08                   0.
   0.880     0.0149     0.50        0.0
   0.887     0.0072     0.24                   0.
   0.902     0.0007     0.02                   0.
   0.906     0.0094     0.31        0.0
   0.911     0.0007     0.02                   0.
   0.927     0.0021     0.07                   0.
   0.931     0.0018     0.06                   0.
   0.963     0.0009     0.03                   0.
   0.968     0.0196     0.63        0.0
   0.972     0.0006     0.02                   0.
   0.994     0.0014     0.04                   0.
   1.006     0.0024     0.08                   0.
   1.019     0.0004     0.01                   0.
   1.026     0.0027     0.08        0.0
   1.038     0.0009     0.012       1.0
   1.044     0.0081     0.29                   0.
   1.051     0.0091     0.28                   0.
   1.060     0.0011     0.03                   0.
   1.071     0.0011     0.002       1.0
   1.085     0.0005     0.02                   0.
   1.100     0.0019     0.003       1.0
   1.118     0.0004     0.01                   0.
   1.141     0.0010     0.03                   0.
   1.152     0.0034     0.10                   0.
   1.160     0.0013     0.04                   0.
   1.175     0.0006     0.02                   0.
   1.194     0.0010     0.03                   0.
   1.206     0.0007     0.02                   0.
   1.220     0.0228     0.65        0.0
   1.223     0.0031     0.032       1.0
   1.240     0.0048     0.14                   0.
   1.256     0.0263     0.74        0.0
   1.265     0.0131     0.37                   0.
   1.293     0.0068     0.19                   0.
   1.312     0.0116     0.32                   0.
   1.341     0.0125     0.34                   0.
   1.354     0.0016     0.04                   0.
   1.366     0.0016     0.04                   0.
   1.376     0.0090     0.24                   0.
   1.390     0.0016     0.04                   0.
   1.403     0.0214     0.57        0.0
   1.407     0.0129     0.34                   0.
   1.427     0.0011     0.03                   0.
   1.429     0.0028     0.07                   0.
   1.453     0.0067     0.18                   0.
   1.468     0.0016     0.04                   0.
   1.495     0.0010     0.03                   0.
   1.513     0.0003     0.008                  0.
   1.528     0.0572     1.46        0.0
   1.542     0.0030     0.08                   0.
   1.555     0.0004     0.01                   0.
   1.570     0.0082     0.20                   0.
   1.586     0.0388     0.97        0.0
   1.602     0.0240     0.60        0.0
   1.622     0.0146     0.36                   0.
   1.637     0.0342     0.85        0.0
   1.660     0.0253     0.62        0.0
   1.670     0.0032     0.08                   0.
   1.693     0.0018     0.04                   0.
   1.705     0.0021     0.05                   0.
   1.708     0.0068     0.16                   0.
   1.748     0.0300     0.72        0.0
   1.771     0.0077     0.18                   0.
   1.781     0.0015     0.03                   0.
   1.793     0.0303     0.72        0.0
   1.796     0.0030     0.07                   0.
   1.826     0.0323     0.76        0.0
   1.832     0.0323     0.76        0.0
   1.876     0.0023     0.05                   0.
   1.889     0.0343     0.79        0.0
   1.925     0.0051     0.12                   0.
   1.940     0.0448     1.02        0.0
   1.958     0.0050     0.11                   0.
   1.984     0.0041     0.09                   0.
   2.011     0.0009     0.02                   0.
   2.029     0.0286     0.63        0.0
   2.050     0.0040     0.09                   0.
   2.071     0.0005     0.01                   0.
   2.090     0.0111     0.24                   0.
   2.095     0.0031     0.07                   0.
   2.111     0.0050     0.11                   0.
   2.117     0.0107     0.23                   0.
   2.125     0.0023     0.05                   0.
   2.146     0.0289     0.62        0.0
   2.149     0.0458     0.99        0.0
   2.164     0.0105     0.23                   0.
   2.179     0.0096     0.21                   0.
   2.208     0.0024     0.05                   0.
   2.212     0.0077     0.16                   0.
   2.242     0.0140     0.30                   0.
   2.275     0.0021     0.04                   0.
   2.291     0.0032     0.07                   0.
   2.301     0.0184     0.38                   0.
ENDDATA            142
ENDSUBENT          158
SUBENT        10746003   20091105   20100405   20100330       1360
BIB                  5          6
REACTION   (48-CD-111(N,EL),,STF)
ANALYSIS   For s-wave strength function all resonances included
            except the 13 definite p-waves.
ERR-ANALYS (DATA-ERR) No information on source of uncertainties.
STATUS     (TABLE) Data taken from reference text.
HISTORY    (20091105A) Energy heading updated.
ENDBIB               6
NOCOMMON             0          0
DATA                 6          2
EN-RES-MIN EN-RES-MAX MOMENTUM L DATA       DATA-MIN   DATA-ERR
KEV        KEV        NO-DIM     NO-DIM     NO-DIM     NO-DIM
   0.270      2.301      0.        0.15  -04              0.02 -04
   0.287      1.223      1.                    0.9  -04   0.3  -04
ENDDATA              4
ENDSUBENT           15
SUBENT        10746004   20091105   20100405   20100330       1360
BIB                  5          5
REACTION   (48-CD-111(N,0),,D)
ANALYSIS   Level spacing determined from 150 resonances
ERR-ANALYS No information on uncertainties.
STATUS     (TABLE) Data taken from reference text.
HISTORY    (20091105A) Energy heading updated.
ENDBIB               5
NOCOMMON             0          0
DATA                 3          1
EN-RES-MIN EN-RES-MAX DATA
KEV        KEV        EV
   0.270      2.301     13.5
ENDDATA              3
ENDSUBENT           13
ENDENTRY             4
