ENTRY            C2130   20140905   20150202   20150112       C145
SUBENT        C2130001   20140905   20150202   20150112       C145
BIB                 13         40
TITLE      Gamow-Teller transition strengths from 56Fe extracted
           from the 56Fe(t,3He) reaction
AUTHOR     (M.Scott,Y.Shimbara,S.M.Austin,D.Bazin,B.A.Brown,
           J.M.Deaven,Y.Fujita,C.J.Guess,S.Gupta,G.W.Hitt,
           D.Koeppe,R.Meharchand,M.Nagashima,G.Perdikakis,
           A.Prinke, M.Sasano,C.Sullivan,L.Valdez,R.G.T.Zegers)
INSTITUTE  (1USAMSU,2JPNNII,2JPNOSA,1USALTI)
           (3INDIND) Indian Institute of Technology, Ropar, Punjab
           (3UAEUAE) Khalifa University of Science, Technology,
           and Research, Abu Dhabi
           (1USAUSA) Central Michigan University, Mt. Pleasant,
           Michigan
REFERENCE  (J,PR/C,90,025801,2014)
FACILITY   (CYCTM,1USAMSU) Experiment performed using Coupled
           Cyclotron Facility and fragment separator at National
           Superconducting Cyclotron Laboratory at MSU
SAMPLE     (26-FE-56,ENR=0.9993) Metallic foil with thickness of
           9.62 mg/cm2
DETECTOR   (MAGSP) Sample was placed at the pivot point of the
           S800 spectrograph set for a central scattering angle
           of 0deg. The 3He2+ ejectiles from the (t,3He)
           reactions were momentum-analyzed in the S800 focal
           plane.
           (SCIN) A plastic scintillator was placed in the S800
           focal plane to measure particle energy los
METHOD     (TOF,EDE) Energy measurement was made using time of
           flight relative to cyclotron radiofrequency signal,
           dE was measured using plastic scintillator.
INC-SOURCE A primary beam of 16-O-8+ ions at 150 AMeV produced
           at the National Superconducting Cyclotron Laboratory
           Coupled Cyclotron Facility was impinged upon a 3526
           mg/cm2 thick beryllium target to produce a 115-AMeV
           secondary triton beam. An isotopic purity of better
           than 99% was obtained in the A1900 fragment
           separator. An average triton beam intensity of 7E+6
           particles/s was achieved
MONITOR    (6-C-12(T,2-HE-3)5-B-12,,SIG)
MONIT-REF  (,G.Perdikakis+,J,PR/C,83,054614,2011)
ERR-ANALYS (DATA-ERR) No information given
HISTORY    (20140905C) Compiled by S.H.
ENDBIB              40
COMMON               1          3
EN
MEV/A
115.0
ENDCOMMON            3
ENDSUBENT           47
SUBENT        C2130002   20140905   20150202   20150112       C145
BIB                  2          3
REACTION   (26-FE-56(T,HE3)25-MN-56,ICL,DA/DE,HE3/RSD)
STATUS     (TABLE) Data presented in fig. 1 of the reference sent
                   by author (R.G.T.Z)
ENDBIB               3
NOCOMMON             0          0
DATA                 4        604
ANG        E-EXC      DATA       DATA-ERR
ADEG       MEV        MB/SR/MEV  MB/SR/MEV
        0.0      0.125      5.600      0.920
        0.0      0.375      2.236      0.576
        0.0      0.625      0.820      0.368
        0.0      0.875      4.060      0.768
        0.0      1.125      4.692      0.816
        0.0      1.375      2.896      0.632
        0.0      1.625      1.844      0.512
        0.0      1.875      3.608      0.736
        0.0      2.125      3.428      0.700
        0.0      2.375      3.936      0.756
        0.0      2.625      1.532      0.460
        0.0      2.875      1.276      0.424
        0.0      3.125      1.900      0.528
        0.0      3.375      1.356      0.408
        0.0      3.625      1.820      0.504
        0.0      3.875      1.824      0.504
        0.0      4.125      2.208      0.552
        0.0      4.375      2.400      0.600
        0.0      4.625      2.032      0.544
        0.0      4.875      1.544      0.488
        0.0      5.125      1.008      0.380
        0.0      5.375      1.492      0.452
        0.0      5.625      1.304      0.436
        0.0      5.875      1.748      0.528
        0.0      6.125      3.080      0.672
        0.0      6.375      1.372      0.432
        0.0      6.625      2.736      0.644
        0.0      6.875      1.736      0.500
        0.0      7.125      3.164      0.676
        0.0      7.375      2.740      0.628
        0.0      7.625      1.788      0.476
        0.0      7.875      2.648      0.624
        0.0      8.125      3.248      0.708
        0.0      8.375      3.764      0.752
        0.0      8.625      3.320      0.724
        0.0      8.875      2.560      0.604
        0.0      9.125      3.932      0.756
        0.0      9.375      3.308      0.688
        0.0      9.625      3.560      0.728
        0.0      9.875      5.348      0.904
        0.0     10.125      3.484      0.712
        0.0     10.375      3.516      0.732
        0.0     10.625      3.228      0.704
        0.0     10.875      2.824      0.648
        0.0     11.125      5.052      0.840
        0.0     11.375      3.720      0.760
        0.0     11.625      3.204      0.700
        0.0     11.875      4.248      0.816
        0.0     12.125      3.156      0.688
        0.0     12.375      4.144      0.796
        0.0     12.625      5.180      0.876
        0.0     12.875      3.828      0.752
        0.0     13.125      3.836      0.752
        0.0     13.375      4.352      0.808
        0.0     13.625      3.576      0.728
        0.0     13.875      4.860      0.832
        0.0     14.125      2.736      0.612
        0.0     14.375      3.704      0.740
        0.0     14.625      4.552      0.816
        0.0     14.875      4.728      0.812
        0.0     15.125      4.472      0.832
        0.0     15.375      6.840      1.008
        0.0     15.625      4.604      0.828
        0.0     15.875      5.084      0.860
        0.0     16.125      4.716      0.820
        0.0     16.375      4.884      0.852
        0.0     16.625      3.628      0.684
        0.0     16.875      3.472      0.724
        0.0     17.125      5.116      0.864
        0.0     17.375      4.492      0.832
        0.0     17.625      3.288      0.684
        0.0     17.875      4.760      0.840
        0.0     18.125      4.708      0.844
        0.0     18.375      4.780      0.844
        0.0     18.625      5.640      0.928
       10.0      0.125      4.744      0.476
       10.0      0.375      1.716      0.292
       10.0      0.625      0.632      0.176
       10.0      0.875      3.128      0.404
       10.0      1.125      4.288      0.452
       10.0      1.375      2.896      0.376
       10.0      1.625      1.628      0.284
       10.0      1.875      2.808      0.384
       10.0      2.125      3.268      0.392
       10.0      2.375      3.048      0.392
       10.0      2.625      2.024      0.316
       10.0      2.875      2.396      0.344
       10.0      3.125      2.012      0.312
       10.0      3.375      1.132      0.236
       10.0      3.625      1.860      0.300
       10.0      3.875      3.000      0.396
       10.0      4.125      3.656      0.416
       10.0      4.375      2.432      0.336
       10.0      4.625      2.312      0.336
       10.0      4.875      2.280      0.324
       10.0      5.125      1.548      0.272
       10.0      5.375      2.336      0.348
       10.0      5.625      1.316      0.248
       10.0      5.875      2.308      0.340
       10.0      6.125      2.268      0.336
       10.0      6.375      3.100      0.392
       10.0      6.625      2.960      0.380
       10.0      6.875      2.564      0.360
       10.0      7.125      3.644      0.428
       10.0      7.375      3.472      0.416
       10.0      7.625      3.608      0.412
       10.0      7.875      4.132      0.460
       10.0      8.125      4.128      0.448
       10.0      8.375      4.268      0.464
       10.0      8.625      3.916      0.440
       10.0      8.875      4.100      0.460
       10.0      9.125      4.440      0.472
       10.0      9.375      3.836      0.440
       10.0      9.625      4.344      0.464
       10.0      9.875      4.512      0.472
       10.0     10.125      4.512      0.480
       10.0     10.375      4.768      0.476
       10.0     10.625      3.072      0.388
       10.0     10.875      3.760      0.424
       10.0     11.125      4.448      0.472
       10.0     11.375      2.956      0.368
       10.0     11.625      4.156      0.448
       10.0     11.875      4.484      0.472
       10.0     12.125      4.012      0.440
       10.0     12.375      4.632      0.480
       10.0     12.625      4.344      0.472
       10.0     12.875      4.284      0.460
       10.0     13.125      4.292      0.452
       10.0     13.375      4.156      0.456
       10.0     13.625      4.348      0.460
       10.0     13.875      4.664      0.480
       10.0     14.125      4.292      0.456
       10.0     14.375      4.752      0.484
       10.0     14.625      3.828      0.436
       10.0     14.875      5.300      0.512
       10.0     15.125      5.072      0.496
       10.0     15.375      4.608      0.472
       10.0     15.625      3.900      0.440
       10.0     15.875      4.792      0.484
       10.0     16.125      3.688      0.424
       10.0     16.375      4.308      0.460
       10.0     16.625      4.148      0.452
       10.0     16.875      5.012      0.500
       10.0     17.125      5.200      0.504
       10.0     17.375      4.612      0.480
       10.0     17.625      4.992      0.496
       10.0     17.875      4.396      0.460
       10.0     18.125      4.568      0.476
       10.0     18.375      4.844      0.488
       10.0     18.625      6.156      0.548
       20.0     -0.375      0.412      0.112
       20.0     -0.125      3.188      0.304
       20.0      0.125      3.152      0.300
       20.0      0.375      1.048      0.176
       20.0      0.625      0.580      0.128
       20.0      0.875      2.228      0.256
       20.0      1.125      2.872      0.288
       20.0      1.375      1.580      0.216
       20.0      1.625      1.408      0.204
       20.0      1.875      1.876      0.236
       20.0      2.125      2.576      0.276
       20.0      2.375      2.276      0.256
       20.0      2.625      2.336      0.268
       20.0      2.875      2.324      0.256
       20.0      3.125      1.916      0.236
       20.0      3.375      1.740      0.228
       20.0      3.625      1.840      0.232
       20.0      3.875      2.812      0.292
       20.0      4.125      2.936      0.292
       20.0      4.375      2.652      0.272
       20.0      4.625      3.048      0.304
       20.0      4.875      2.600      0.276
       20.0      5.125      3.004      0.296
       20.0      5.375      2.700      0.284
       20.0      5.625      2.132      0.252
       20.0      5.875      2.604      0.276
       20.0      6.125      2.776      0.288
       20.0      6.375      4.676      0.372
       20.0      6.625      4.088      0.348
       20.0      6.875      3.856      0.336
       20.0      7.125      4.224      0.360
       20.0      7.375      4.372      0.360
       20.0      7.625      5.112      0.392
       20.0      7.875      5.436      0.400
       20.0      8.125      5.208      0.392
       20.0      8.375      5.500      0.400
       20.0      8.625      5.080      0.392
       20.0      8.875      5.320      0.400
       20.0      9.125      5.128      0.384
       20.0      9.375      4.616      0.368
       20.0      9.625      4.708      0.368
       20.0      9.875      5.164      0.392
       20.0     10.125      5.216      0.396
       20.0     10.375      4.460      0.356
       20.0     10.625      5.504      0.400
       20.0     10.875      4.656      0.368
       20.0     11.125      5.756      0.416
       20.0     11.375      5.196      0.388
       20.0     11.625      5.148      0.384
       20.0     11.875      4.564      0.372
       20.0     12.125      4.996      0.384
       20.0     12.375      4.384      0.360
       20.0     12.625      4.568      0.368
       20.0     12.875      4.604      0.368
       20.0     13.125      4.776      0.376
       20.0     13.375      5.060      0.388
       20.0     13.625      4.848      0.376
       20.0     13.875      4.580      0.368
       20.0     14.125      4.160      0.348
       20.0     14.375      4.952      0.384
       20.0     14.625      4.436      0.360
       20.0     14.875      4.200      0.352
       20.0     15.125      4.948      0.388
       20.0     15.375      4.372      0.360
       20.0     15.625      4.276      0.356
       20.0     15.875      4.696      0.372
       20.0     16.125      4.436      0.364
       20.0     16.375      4.500      0.368
       20.0     16.625      4.980      0.384
       20.0     16.875      5.656      0.412
       20.0     17.125      5.236      0.396
       20.0     17.375      4.988      0.384
       20.0     17.625      4.476      0.364
       20.0     17.875      5.400      0.404
       20.0     18.125      4.640      0.368
       20.0     18.375      4.628      0.372
       20.0     18.625      4.340      0.356
       30.0      0.125      2.456      0.228
       30.0      0.375      1.016      0.148
       30.0      0.625      0.352      0.084
       30.0      0.875      1.344      0.168
       30.0      1.125      2.292      0.220
       30.0      1.375      0.900      0.132
       30.0      1.625      0.736      0.124
       30.0      1.875      1.320      0.172
       30.0      2.125      1.872      0.200
       30.0      2.375      1.652      0.184
       30.0      2.625      2.268      0.220
       30.0      2.875      2.308      0.220
       30.0      3.125      1.880      0.196
       30.0      3.375      1.556      0.180
       30.0      3.625      1.528      0.180
       30.0      3.875      2.760      0.244
       30.0      4.125      3.516      0.272
       30.0      4.375      3.040      0.252
       30.0      4.625      2.548      0.232
       30.0      4.875      2.432      0.224
       30.0      5.125      2.272      0.216
       30.0      5.375      2.752      0.244
       30.0      5.625      2.680      0.240
       30.0      5.875      3.084      0.256
       30.0      6.125      3.104      0.260
       30.0      6.375      4.204      0.304
       30.0      6.625      5.332      0.336
       30.0      6.875      3.944      0.292
       30.0      7.125      4.920      0.324
       30.0      7.375      5.172      0.336
       30.0      7.625      5.536      0.340
       30.0      7.875      5.596      0.340
       30.0      8.125      6.260      0.364
       30.0      8.375      5.888      0.352
       30.0      8.625      5.376      0.340
       30.0      8.875      5.280      0.332
       30.0      9.125      5.444      0.344
       30.0      9.375      4.948      0.320
       30.0      9.625      5.620      0.344
       30.0      9.875      6.368      0.376
       30.0     10.125      5.452      0.344
       30.0     10.375      5.000      0.332
       30.0     10.625      5.236      0.332
       30.0     10.875      4.900      0.320
       30.0     11.125      4.656      0.316
       30.0     11.375      5.528      0.348
       30.0     11.625      4.544      0.312
       30.0     11.875      5.300      0.332
       30.0     12.125      5.036      0.324
       30.0     12.375      5.536      0.344
       30.0     12.625      4.572      0.308
       30.0     12.875      5.004      0.324
       30.0     13.125      5.048      0.332
       30.0     13.375      5.136      0.332
       30.0     13.625      4.596      0.312
       30.0     13.875      4.692      0.316
       30.0     14.125      4.144      0.300
       30.0     14.375      4.384      0.312
       30.0     14.625      4.832      0.324
       30.0     14.875      4.632      0.316
       30.0     15.125      4.484      0.308
       30.0     15.375      4.640      0.316
       30.0     15.625      4.844      0.324
       30.0     15.875      4.144      0.300
       30.0     16.125      4.428      0.308
       30.0     16.375      4.556      0.312
       30.0     16.625      4.672      0.316
       30.0     16.875      4.532      0.308
       30.0     17.125      4.704      0.316
       30.0     17.375      5.004      0.328
       30.0     17.625      4.824      0.320
       30.0     17.875      4.616      0.312
       30.0     18.125      5.256      0.336
       30.0     18.375      4.120      0.296
       30.0     18.625      4.536      0.308
       40.0      0.125      2.276      0.200
       40.0      0.375      1.048      0.136
       40.0      0.625      0.612      0.108
       40.0      0.875      0.768      0.116
       40.0      1.125      1.616      0.168
       40.0      1.375      1.152      0.140
       40.0      1.625      0.524      0.096
       40.0      1.875      0.868      0.120
       40.0      2.125      1.620      0.164
       40.0      2.375      1.708      0.168
       40.0      2.625      2.096      0.192
       40.0      2.875      2.268      0.200
       40.0      3.125      1.628      0.164
       40.0      3.375      1.528      0.164
       40.0      3.625      1.928      0.180
       40.0      3.875      2.776      0.216
       40.0      4.125      2.968      0.220
       40.0      4.375      2.484      0.208
       40.0      4.625      2.844      0.220
       40.0      4.875      2.780      0.220
       40.0      5.125      2.336      0.200
       40.0      5.375      2.164      0.192
       40.0      5.625      2.380      0.200
       40.0      5.875      2.360      0.200
       40.0      6.125      2.728      0.212
       40.0      6.375      3.876      0.256
       40.0      6.625      3.968      0.260
       40.0      6.875      4.320      0.272
       40.0      7.125      4.908      0.292
       40.0      7.375      4.524      0.276
       40.0      7.625      4.744      0.284
       40.0      7.875      5.376      0.304
       40.0      8.125      5.292      0.300
       40.0      8.375      5.224      0.296
       40.0      8.625      4.956      0.288
       40.0      8.875      5.024      0.292
       40.0      9.125      4.800      0.284
       40.0      9.375      4.856      0.288
       40.0      9.625      4.740      0.284
       40.0      9.875      4.844      0.292
       40.0     10.125      5.180      0.296
       40.0     10.375      4.660      0.284
       40.0     10.625      4.528      0.280
       40.0     10.875      4.504      0.276
       40.0     11.125      4.940      0.292
       40.0     11.375      4.828      0.284
       40.0     11.625      4.480      0.272
       40.0     11.875      5.380      0.304
       40.0     12.125      4.680      0.284
       40.0     12.375      4.788      0.288
       40.0     12.625      4.152      0.264
       40.0     12.875      5.128      0.296
       40.0     13.125      4.272      0.272
       40.0     13.375      4.016      0.264
       40.0     13.625      4.432      0.276
       40.0     13.875      3.700      0.252
       40.0     14.125      3.932      0.260
       40.0     14.375      4.640      0.284
       40.0     14.625      4.288      0.272
       40.0     14.875      4.368      0.272
       40.0     15.125      4.048      0.264
       40.0     15.375      4.312      0.272
       40.0     15.625      4.152      0.268
       40.0     15.875      3.852      0.256
       40.0     16.125      3.728      0.248
       40.0     16.375      4.380      0.272
       40.0     16.625      4.420      0.276
       40.0     16.875      4.688      0.284
       40.0     17.125      4.000      0.260
       40.0     17.375      4.348      0.272
       40.0     17.625      3.916      0.256
       40.0     17.875      3.536      0.244
       40.0     18.125      3.948      0.260
       40.0     18.375      4.612      0.284
       40.0     18.625      4.504      0.280
       50.0      0.125      2.136      0.216
       50.0      0.375      1.312      0.176
       50.0      0.625      0.472      0.100
       50.0      0.875      1.220      0.164
       50.0      1.125      1.972      0.208
       50.0      1.375      1.052      0.152
       50.0      1.625      0.960      0.140
       50.0      1.875      1.276      0.164
       50.0      2.125      1.480      0.176
       50.0      2.375      1.904      0.196
       50.0      2.625      1.736      0.188
       50.0      2.875      1.772      0.192
       50.0      3.125      1.912      0.196
       50.0      3.375      1.332      0.164
       50.0      3.625      1.604      0.180
       50.0      3.875      2.572      0.228
       50.0      4.125      1.908      0.192
       50.0      4.375      2.524      0.224
       50.0      4.625      2.360      0.216
       50.0      4.875      2.332      0.216
       50.0      5.125      2.048      0.204
       50.0      5.375      1.852      0.192
       50.0      5.625      2.052      0.204
       50.0      5.875      1.948      0.196
       50.0      6.125      2.564      0.228
       50.0      6.375      2.924      0.244
       50.0      6.625      3.304      0.260
       50.0      6.875      3.344      0.264
       50.0      7.125      3.532      0.268
       50.0      7.375      3.608      0.268
       50.0      7.625      3.928      0.280
       50.0      7.875      3.912      0.276
       50.0      8.125      4.508      0.304
       50.0      8.375      3.916      0.280
       50.0      8.625      3.816      0.276
       50.0      8.875      3.892      0.276
       50.0      9.125      3.896      0.276
       50.0      9.375      3.796      0.276
       50.0      9.625      4.064      0.288
       50.0      9.875      4.376      0.296
       50.0     10.125      4.324      0.300
       50.0     10.375      3.700      0.272
       50.0     10.625      4.048      0.284
       50.0     10.875      4.044      0.284
       50.0     11.125      4.256      0.292
       50.0     11.375      4.084      0.284
       50.0     11.625      3.808      0.276
       50.0     11.875      4.248      0.296
       50.0     12.125      4.252      0.292
       50.0     12.375      4.148      0.292
       50.0     12.625      4.028      0.284
       50.0     12.875      3.444      0.264
       50.0     13.125      4.124      0.292
       50.0     13.375      4.008      0.280
       50.0     13.625      4.288      0.296
       50.0     13.875      3.524      0.264
       50.0     14.125      3.840      0.280
       50.0     14.375      4.004      0.280
       50.0     14.625      4.056      0.292
       50.0     14.875      4.268      0.288
       50.0     15.125      4.040      0.284
       50.0     15.375      3.968      0.280
       50.0     15.625      3.964      0.284
       50.0     15.875      4.124      0.292
       50.0     16.125      4.000      0.284
       50.0     16.375      3.512      0.256
       50.0     16.625      3.616      0.268
       50.0     16.875      4.484      0.296
       50.0     17.125      4.692      0.308
       50.0     17.375      3.920      0.280
       50.0     17.625      4.688      0.312
       50.0     17.875      4.116      0.288
       50.0     18.125      4.388      0.304
       50.0     18.375      4.744      0.320
       50.0     18.625      4.064      0.296
       60.0      0.125      1.804      0.216
       60.0      0.375      1.456      0.212
       60.0      0.625      0.440      0.108
       60.0      0.875      1.100      0.176
       60.0      1.125      1.920      0.240
       60.0      1.375      1.112      0.180
       60.0      1.625      0.868      0.152
       60.0      1.875      0.852      0.152
       60.0      2.125      1.252      0.176
       60.0      2.375      1.664      0.208
       60.0      2.625      1.556      0.196
       60.0      2.875      1.600      0.208
       60.0      3.125      1.720      0.208
       60.0      3.375      1.248      0.180
       60.0      3.625      1.512      0.204
       60.0      3.875      2.276      0.240
       60.0      4.125      1.916      0.224
       60.0      4.375      2.568      0.260
       60.0      4.625      1.784      0.212
       60.0      4.875      1.828      0.216
       60.0      5.125      1.776      0.216
       60.0      5.375      1.168      0.172
       60.0      5.625      1.560      0.204
       60.0      5.875      1.840      0.220
       60.0      6.125      2.084      0.244
       60.0      6.375      3.036      0.288
       60.0      6.625      2.416      0.252
       60.0      6.875      2.796      0.276
       60.0      7.125      2.332      0.244
       60.0      7.375      2.404      0.244
       60.0      7.625      2.888      0.276
       60.0      7.875      3.072      0.276
       60.0      8.125      3.004      0.276
       60.0      8.375      2.856      0.272
       60.0      8.625      2.988      0.288
       60.0      8.875      3.128      0.292
       60.0      9.125      3.268      0.304
       60.0      9.375      3.236      0.292
       60.0      9.625      2.588      0.252
       60.0      9.875      3.544      0.312
       60.0     10.125      2.532      0.252
       60.0     10.375      3.216      0.292
       60.0     10.625      3.700      0.300
       60.0     10.875      2.820      0.276
       60.0     11.125      3.480      0.300
       60.0     11.375      3.532      0.308
       60.0     11.625      3.272      0.292
       60.0     11.875      2.772      0.268
       60.0     12.125      2.840      0.272
       60.0     12.375      3.792      0.316
       60.0     12.625      3.116      0.284
       60.0     12.875      3.360      0.296
       60.0     13.125      2.976      0.276
       60.0     13.375      3.352      0.300
       60.0     13.625      3.628      0.312
       60.0     13.875      3.480      0.304
       60.0     14.125      2.432      0.248
       60.0     14.375      3.256      0.292
       60.0     14.625      3.508      0.308
       60.0     14.875      3.868      0.320
       60.0     15.125      3.292      0.284
       60.0     15.375      3.888      0.324
       60.0     15.625      3.884      0.320
       60.0     15.875      3.884      0.324
       60.0     16.125      3.108      0.284
       60.0     16.375      3.032      0.276
       60.0     16.625      3.592      0.308
       60.0     16.875      3.332      0.300
       60.0     17.125      4.100      0.328
       60.0     17.375      3.864      0.312
       60.0     17.625      3.500      0.300
       60.0     17.875      3.616      0.304
       60.0     18.125      3.852      0.320
       60.0     18.375      4.368      0.348
       60.0     18.625      3.968      0.336
       70.0     -0.375      0.520      0.156
       70.0     -0.125      1.976      0.292
       70.0      0.125      1.648      0.256
       70.0      0.375      0.740      0.168
       70.0      0.625      0.700      0.176
       70.0      0.875      1.016      0.212
       70.0      1.125      1.280      0.224
       70.0      1.375      0.872      0.188
       70.0      1.625      0.572      0.160
       70.0      1.875      1.224      0.232
       70.0      2.125      1.492      0.244
       70.0      2.375      1.576      0.256
       70.0      2.625      1.396      0.224
       70.0      2.875      1.480      0.248
       70.0      3.125      1.164      0.204
       70.0      3.375      1.064      0.204
       70.0      3.625      1.348      0.224
       70.0      3.875      1.856      0.264
       70.0      4.125      1.940      0.276
       70.0      4.375      1.804      0.264
       70.0      4.625      1.816      0.268
       70.0      4.875      1.944      0.288
       70.0      5.125      1.540      0.244
       70.0      5.375      1.232      0.216
       70.0      5.625      1.116      0.212
       70.0      5.875      1.304      0.232
       70.0      6.125      1.628      0.256
       70.0      6.375      2.064      0.280
       70.0      6.625      1.672      0.260
       70.0      6.875      1.640      0.244
       70.0      7.125      1.776      0.260
       70.0      7.375      1.880      0.264
       70.0      7.625      2.224      0.284
       70.0      7.875      1.644      0.244
       70.0      8.125      2.488      0.308
       70.0      8.375      1.692      0.260
       70.0      8.625      2.636      0.316
       70.0      8.875      2.564      0.312
       70.0      9.125      1.920      0.268
       70.0      9.375      2.692      0.332
       70.0      9.625      1.892      0.272
       70.0      9.875      3.096      0.356
       70.0     10.125      2.396      0.296
       70.0     10.375      2.636      0.316
       70.0     10.625      2.604      0.324
       70.0     10.875      2.728      0.324
       70.0     11.125      2.352      0.296
       70.0     11.375      2.820      0.316
       70.0     11.625      2.420      0.312
       70.0     11.875      2.944      0.344
       70.0     12.125      2.192      0.280
       70.0     12.375      3.188      0.360
       70.0     12.625      2.544      0.308
       70.0     12.875      2.448      0.304
       70.0     13.125      2.692      0.312
       70.0     13.375      2.748      0.328
       70.0     13.625      2.948      0.352
       70.0     13.875      2.968      0.348
       70.0     14.125      2.664      0.328
       70.0     14.375      2.132      0.276
       70.0     14.625      2.724      0.328
       70.0     14.875      2.040      0.276
       70.0     15.125      3.412      0.360
       70.0     15.375      2.804      0.336
       70.0     15.625      3.456      0.376
       70.0     15.875      3.408      0.364
       70.0     16.125      2.804      0.328
       70.0     16.375      3.620      0.376
       70.0     16.625      3.112      0.344
       70.0     16.875      3.244      0.344
       70.0     17.125      3.384      0.368
       70.0     17.375      3.920      0.416
       70.0     17.625      3.632      0.388
       70.0     17.875      3.808      0.376
       70.0     18.125      3.440      0.380
       70.0     18.375      3.324      0.360
       70.0     18.625      3.584      0.376
ENDDATA            606
ENDSUBENT          614
SUBENT        C2130003   20140905   20150202   20150112       C145
BIB                  2          3
REACTION   (26-FE-56(T,HE3)25-MN-56,PAR,DA)
STATUS     (TABLE) Data presented in fig. 2 of the reference sent
                   by author (R.G.T.Z)
ENDBIB               3
COMMON               1          3
E-LVL
MEV
1.17
ENDCOMMON            3
DATA                 3          8
ANG-CM     DATA-CM    DATA-ERR
ADEG       MB/SR      MB/SR
      0.367      3.117      0.334
      1.102      2.736      0.184
      1.836      1.814      0.115
      2.571      1.222      0.080
      3.305      1.034      0.067
      4.040      1.172      0.080
      4.774      1.144      0.091
      5.509      0.966      0.100
ENDDATA             10
ENDSUBENT           22
ENDENTRY             3
