ENTRY            C2134   20150114   20150505   20150419       C147
SUBENT        C2134001   20150114   20150505   20150419       C147
BIB                 10         42
TITLE      Exploring the alpha cluster structure of nuclei using
           the thick target inverse kinematics technique for
           multiple alpha decays
AUTHOR     (M.Barbui,K.Hagel,V.Z.Goldberg,J.B.Natowitz,H.Zheng,
           G.Giuliani,G.G.Rapisarda,S.Wuenschel,X.Liu)
INSTITUTE  (1USATAM,3CPRIMP)
REFERENCE  (J,EPJ/CS,66,03005,2014)
FACILITY   (CYCLO,1USATAM)Experiment performed at the K150
           cyclotron at Texas A&M University.
SAMPLE     Gaseous 4He filled in reaction chamber with pressure
           735/3800 bar and length of 48 cm was used as target.
           Target thickness was sufficient to stop the beam few
           centimeters before the detectors.
DETECTOR   (TELES,SI,SI) The energy of the light reaction
           prodcts was measured by three silicon detector
           telescopes placed at a radial distance of 48 cm from
           the entrance window. Each telescope consisted of two
           5x5 cm2 Micron Semiconductors DC quadrant detectors.
           The thickness of the silicon detectors in the
           telescopes was: telescope T0 1 mm/2 mm, T1 1 mm/2 mm
           and T2 140 mu-m/300 mu-m.
METHOD     (EDE) Light particles were identified by E-dE method.
           (TTM) Thick target inverse kinematics was used to study
           elastic scattering as well as multiple alpha particle
           decays. This technique is particularly suited for
           this study because it allows the exploration of a
           large range of incident energies in the same
           experiment. Moreover, in the inverse kinematics, the
           reaction products are focused at forward angles and
           can be detected with detectors covering a relatively
           small portion of the solid angle in the forward
           direction.
ANALYSIS   Special reconstruction code was developed to
           reconstruct interaction point inside of thick gaseous
           target, energy of the incident particle at interaction
           point and angle of emitted particle . It allows
           calculation of the interaction point inside the gas
           volume, using the reaction kinematics, the measured
           alpha particle energies and the range energy tables
           from SRIM code. Time of flight information was used
           to double check the position of the interaction point.
HISTORY    (20150114C) Compiled by S.H.
ENDBIB              42
NOCOMMON             0          0
ENDSUBENT           45
SUBENT        C2134002   20150114   20150505   20150419       C147
BIB                  3          5
REACTION   ((2-HE-4(10-NE-20,EL)2-HE-4,,DA)=
           (10-NE-20(A,EL)10-NE-20,,DA))
INC-SOURCE Initial beam energy was 2.9 AMeV
STATUS     (TABLE) Data presented in fig. 2 sent by author (M.B.)
           (COREL,C2134003)
ENDBIB               5
COMMON               1          3
ANG-CM
ADEG
180.0
ENDCOMMON            3
DATA                 2        215
E-EXC-CMP  DATA-CM
MEV        MB/SR
     11.750    26.7856
     11.783    33.2929
     11.817    34.4533
     11.850    38.7127
     11.883    52.2863
     11.917    48.1482
     11.950    50.1821
     11.983    47.9261
     12.017    48.0064
     12.050    39.2228
     12.083    48.6838
     12.117    44.8634
     12.150    69.5911
     12.183    48.6125
     12.217    48.2280
     12.250    54.7351
     12.283    37.0868
     12.317    36.0319
     12.350    37.9641
     12.383    33.9393
     12.417    38.6884
     12.450    53.9719
     12.483    72.6532
     12.517    78.6953
     12.550    46.3901
     12.583    42.5109
     12.617    30.7825
     12.650    30.9988
     12.683    27.7579
     12.717    63.4366
     12.750    64.8989
     12.783    63.3204
     12.817    54.0720
     12.850    29.2242
     12.883    23.7304
     12.917    33.7185
     12.950    33.1791
     12.983    43.5099
     13.017    47.3007
     13.050    67.4648
     13.083    106.003
     13.117    162.436
     13.150    223.997
     13.183    146.314
     13.217    142.239
     13.250    96.6535
     13.283    98.5571
     13.317    136.647
     13.350    227.355
     13.383    233.398
     13.417    245.769
     13.450    198.682
     13.483    222.641
     13.517    341.904
     13.550    240.643
     13.583    252.023
     13.617    321.721
     13.650    459.842
     13.683    252.056
     13.717    172.793
     13.750    153.827
     13.783    59.3116
     13.817    49.3856
     13.850    55.4362
     13.883    33.5687
     13.917    41.1162
     13.950    54.1306
     13.983    75.3230
     14.017    135.111
     14.050    125.341
     14.083    141.046
     14.117    190.430
     14.150    210.615
     14.183    272.358
     14.217    535.925
     14.250    244.968
     14.283    164.292
     14.317    88.0269
     14.350    174.553
     14.383    140.016
     14.417    360.404
     14.450    252.705
     14.483    194.481
     14.517    202.951
     14.550    151.014
     14.583    266.025
     14.617    217.719
     14.650     318.09
     14.683    191.406
     14.717    374.994
     14.750    293.848
     14.783    490.936
     14.817    346.483
     14.850    451.735
     14.883    304.661
     14.917    457.607
     14.950    261.420
     14.983    324.809
     15.017    142.865
     15.050    204.214
     15.083    167.488
     15.117    388.048
     15.150    322.005
     15.183    331.541
     15.217    252.282
     15.250    108.901
     15.283    87.9072
     15.317    157.567
     15.350    79.1109
     15.383    149.291
     15.417    113.772
     15.450    116.294
     15.483    234.499
     15.517    176.134
     15.550    157.310
     15.583    70.0370
     15.617    142.958
     15.650    182.706
     15.683    183.586
     15.717    274.861
     15.750    268.514
     15.783    138.302
     15.817    152.898
     15.850    66.9837
     15.883    78.7597
     15.917    81.1267
     15.950    58.2685
     15.983    139.579
     16.017    218.050
     16.050    145.651
     16.083    208.699
     16.117    169.930
     16.150    162.009
     16.183    293.848
     16.217    334.052
     16.250    255.861
     16.283    362.019
     16.317    313.598
     16.350    404.251
     16.383    384.850
     16.417    307.876
     16.450    470.499
     16.483    644.479
     16.517    477.352
     16.550    871.952
     16.583    963.310
     16.617    599.881
     16.650    942.381
     16.683    707.541
     16.717    366.997
     16.750    344.123
     16.783    257.253
     16.817    172.694
     16.850    326.040
     16.883    441.048
     16.917    533.928
     16.950    411.227
     16.983    570.799
     17.017    540.788
     17.050    446.416
     17.083    490.251
     17.117    347.331
     17.150    466.962
     17.183    435.362
     17.217    358.688
     17.250    302.598
     17.283    200.828
     17.317    310.581
     17.350    282.035
     17.383    209.783
     17.417    83.3851
     17.450    130.237
     17.483    121.622
     17.517    109.586
     17.550    122.357
     17.583    74.7700
     17.617    126.121
     17.650    143.363
     17.683    187.657
     17.717    182.914
     17.750    164.777
     17.783    109.954
     17.817    89.4264
     17.850    71.7292
     17.883    60.9025
     17.917    65.5021
     17.950    90.7765
     17.983    53.8558
     18.017    92.8331
     18.050    72.0826
     18.083    70.3807
     18.117    86.9197
     18.150    115.184
     18.183    171.649
     18.217    223.351
     18.250    244.510
     18.283    313.943
     18.317    294.309
     18.350    289.013
     18.383    229.854
     18.417    141.355
     18.450    68.0561
     18.483    54.8441
     18.517    57.5847
     18.550    49.1041
     18.583    48.4319
     18.617    40.8584
     18.650    16.2703
     18.683    6.88710
     18.717    5.30760
     18.750    4.28575
     18.783    5.62680
     18.817    3.36085
     18.850    2.83395
     18.883    3.40524
ENDDATA            217
ENDSUBENT          231
SUBENT        C2134003   20150114   20150505   20150419       C147
BIB                  3          5
REACTION   ((2-HE-4(10-NE-20,EL)2-HE-4,,DA)=
           (10-NE-20(A,EL)10-NE-20,,DA))
INC-SOURCE Initial beam energy was 9.7 AMeV
STATUS     (TABLE) Data presented in fig. 2 sent by author (M.B.)
           (COREL,C2134002)
ENDBIB               5
COMMON               1          3
ANG-CM
ADEG
180.0
ENDCOMMON            3
DATA                 2        423
E-EXC-CMP  DATA-CM
MEV        MB/SR
     13.973     180.40
     14.052     227.01
     14.131     344.19
     14.210     288.79
     14.288     202.50
     14.359     261.78
     14.430     324.66
     14.501     278.69
     14.572     339.72
     14.642     325.80
     14.712     507.79
     14.781     533.43
     14.850     507.68
     14.919     452.74
     14.987     312.11
     15.056     371.77
     15.127     399.95
     15.200     285.21
     15.272     183.61
     15.345     188.81
     15.417     200.95
     15.489     225.77
     15.489     210.27
     15.557     212.94
     15.622     280.87
     15.687     336.80
     15.752     176.85
     15.817     202.96
     15.882     163.93
     15.947     174.65
     15.947     237.52
     16.012     237.15
     16.077     252.75
     16.143     350.00
     16.208     436.40
     16.273     498.33
     16.338     542.38
     16.403     574.28
     16.403     694.09
     16.468     876.18
     16.534     790.63
     16.599     868.63
     16.664     632.76
     16.729     452.69
     16.792     456.33
     16.854     571.78
     16.916     577.49
     16.978     627.10
     17.040     569.50
     17.040     560.51
     17.102     537.61
     17.164     452.28
     17.226     404.23
     17.288     378.69
     17.349     234.64
     17.411     266.34
     17.473     267.50
     17.535     267.52
     17.596     278.29
     17.655     295.96
     17.714     278.80
     17.773     261.48
     17.831     257.89
     17.890     295.19
     17.949     300.83
     18.008     277.97
     18.067     215.72
     18.125     370.37
     18.184     328.06
     18.243     467.54
     18.302     428.80
     18.360     367.54
     18.419     339.24
     18.473     392.50
     18.526     472.54
     18.580     475.05
     18.634     399.31
     18.688     368.52
     18.741     378.77
     18.795     409.79
     18.849     421.94
     18.903     457.38
     18.956     369.81
     19.064     441.19
     19.118     388.90
     19.171     399.56
     19.225     353.88
     19.279     411.57
     19.332     350.16
     19.386     401.08
     19.439     370.30
     19.493     266.10
     19.600     237.32
     19.653     259.50
     19.707     299.47
     19.760     302.90
     19.814     200.23
     19.867     283.46
     19.921     338.62
     19.974     381.98
     20.028     379.98
     20.131     360.13
     20.183     332.91
     20.234     275.30
     20.285     271.04
     20.336     256.47
     20.388     171.30
     20.490     230.36
     20.541     237.19
     20.592     236.79
     20.644     240.85
     20.695     161.73
     20.746     272.61
     20.797     259.35
     20.899     250.70
     20.946     232.01
     20.993     227.57
     21.040     220.76
     21.087     210.72
     21.182     202.82
     21.229     206.33
     21.276     230.22
     21.323     238.40
     21.418     242.17
     21.465     260.49
     21.512     161.40
     21.559     177.96
     21.654     264.66
     21.701     274.13
     21.748     282.90
     21.795     280.59
     21.890     258.60
     21.937     257.44
     21.984     266.63
     22.031     302.16
     22.126     332.45
     22.173     343.48
     22.220     346.49
     22.315     334.62
     22.362     273.49
     22.409     367.72
     22.503     353.78
     22.549     335.58
     22.593     352.97
     22.683     345.00
     22.727     362.05
     22.817     354.89
     22.861     241.67
     22.906     241.60
     22.950     250.84
     23.040     253.77
     23.084     251.30
     23.129     253.04
     23.218     190.03
     23.263     252.29
     23.307     216.69
     23.352     237.13
     23.441     250.58
     23.486     226.47
     23.531     191.90
     23.620     149.32
     23.664     137.38
     23.754     125.18
     23.798     134.55
     23.843     132.45
     23.932     149.21
     23.977     152.68
     24.066     51.627
     24.111     179.91
     24.155     180.27
     24.240     186.43
     24.282     197.49
     24.365     192.67
     24.407     154.17
     24.448     95.733
     24.531     79.031
     24.573     88.045
     24.615     41.162
     24.698     41.709
     24.739     47.940
     24.822     43.091
     24.864     53.608
     24.906     67.931
     24.989     92.760
     25.030     105.32
     25.113     110.91
     25.155     105.12
     25.238     90.157
     25.280     81.924
     25.363     71.587
     25.404     70.618
     25.488     73.218
     25.529     74.100
     25.612     83.813
     25.654     104.10
     25.737     105.87
     25.779     115.35
     25.861     111.19
     25.899     113.97
     25.975     102.52
     26.013     95.183
     26.090     95.081
     26.128     89.994
     26.204     93.550
     26.242     81.406
     26.319     68.481
     26.357     71.769
     26.433     51.886
     26.509     50.942
     26.548     41.046
     26.624     44.948
     26.662     48.457
     26.738     59.079
     26.815     61.736
     26.853     63.129
     26.929     65.820
     26.967     54.057
     27.044     45.876
     27.120     47.675
     27.158     50.117
     27.235     58.123
     27.311     55.236
     27.349     72.756
     27.425     63.455
     27.464     58.595
     27.538     61.714
     27.574     61.341
     27.647     60.408
     27.684     57.290
     27.757     51.125
     27.831     63.333
     27.867     60.118
     27.940     73.486
     27.977     77.033
     28.050     60.130
     28.124     51.848
     28.197     43.051
     28.234     44.635
     28.307     51.016
     28.380     50.012
     28.417     56.467
     28.490     42.839
     28.563     44.425
     28.600     43.865
     28.673     40.133
     28.746     33.974
     28.783     36.990
     28.856     26.152
     28.930     29.460
     28.966     26.166
     29.039     32.415
     29.076     32.617
     29.149     34.916
     29.217     29.340
     29.251     30.002
     29.319     23.732
     29.386     25.505
     29.454     24.524
     29.488     25.016
     29.556     26.174
     29.624     24.505
     29.691     28.721
     29.759     32.531
     29.827     31.139
     29.861     25.859
     29.929     31.625
     29.996     24.672
     30.064     31.594
     30.132     31.174
     30.200     28.611
     30.234     28.111
     30.301     19.480
     30.369     16.304
     30.437     12.315
     30.471     15.980
     30.539     16.585
     30.606     23.454
     30.640     32.948
     30.708     35.474
     30.742     36.128
     30.809     42.038
     30.874     36.847
     30.940     33.078
     31.005     24.216
     31.071     22.060
     31.104     13.562
     31.169     17.950
     31.235     20.951
     31.300     21.756
     31.366     26.726
     31.431     34.888
     31.497     35.950
     31.562     35.718
     31.628     42.326
     31.660     39.370
     31.726     37.367
     31.791     39.580
     31.857     35.919
     31.922     41.940
     31.988     39.357
     32.053     32.607
     32.119     28.417
     32.184     22.880
     32.217     25.875
     32.283     29.860
     32.348     28.972
     32.414     24.567
     32.477     24.058
     32.538     19.440
     32.599     17.356
     32.660     11.768
     32.721     10.458
     32.782     12.443
     32.843     14.113
     32.904     15.253
     32.965     19.289
     33.026     15.249
     33.086     13.665
     33.147     15.073
     33.208     16.535
     33.300     18.043
     33.330     11.095
     33.391     16.083
     33.452     16.102
     33.513     17.160
     33.574     19.270
     33.635     19.299
     33.665     20.429
     33.726     20.374
     33.787     20.803
     33.848     15.217
     33.909     15.096
     33.970     19.296
     34.031     16.101
     34.092     14.275
     34.151     16.674
     34.210     15.200
     34.269     15.985
     34.329     15.408
     34.388     13.728
     34.447     12.034
     34.506     8.9448
     34.565     6.2015
     34.654     24.386
     34.713     17.657
     34.772     16.456
     34.832     19.810
     34.891     18.749
     34.950     11.565
     35.009     18.410
     35.068     2.1962
     35.128     27.503
     35.187     16.878
     35.246     3.7157
     35.305     26.005
     35.394     19.862
     35.453     2.5892
     35.512     24.462
     35.572     14.413
     35.631     3.6034
     35.690     17.484
     35.749     24.999
     35.804     2.3942
     35.887     16.449
     35.943     29.744
     35.998     0.9596
     36.053     17.030
     36.136     19.719
     36.192     1.2272
     36.247     16.214
     36.302     19.360
     36.358     1.2917
     36.413     12.754
     36.468     16.752
     36.579     8.2238
     36.634     6.8852
     36.690     9.4397
     36.745     8.0957
     36.828     6.2219
     36.883     8.3234
     36.938     5.9955
     37.049     9.9685
     37.104     4.1085
     37.160     4.5015
     37.243     3.2699
     37.298     6.5608
     37.353     5.0461
     37.490     3.1523
     37.545    11.2641
     37.599     4.7321
     37.654     3.4072
     37.735     4.5466
     37.790     6.5324
     37.926     5.3933
     37.981     5.2968
     38.035     9.9990
     38.090     6.1332
     38.171     3.3404
     38.280     6.0855
     38.335     5.7557
     38.416     3.9135
     38.471     4.8046
     38.525     7.9932
     38.580     4.4805
     38.716     5.4059
     38.771     3.7539
     38.852     5.5666
     38.907     4.2025
     38.961     9.8152
     39.016     5.0732
     39.142     4.9309
     39.216     3.3031
     39.265     1.6568
     39.339     4.9327
     39.388     2.9690
     39.437     4.6538
     39.560     3.9400
     39.609     3.2622
     39.683     3.4665
     39.732     4.7418
     39.781     2.6636
     39.904     6.0072
     39.953     0.7051
ENDDATA            425
ENDSUBENT          439
SUBENT        C2134004   20150114   20150505   20150419       C147
BIB                  2          3
REACTION   ((2-HE-4(10-NE-20,EL)2-HE-4,,DA)=
           (10-NE-20(A,EL)10-NE-20,,DA))
STATUS     (TABLE) Data presented in fig. 2 sent by author (M.B.)
ENDBIB               3
COMMON               1          3
ANG-CM
ADEG
170.
ENDCOMMON            3
DATA                 2        215
E-EXC-CMP  DATA-CM
MEV        MB/SR
     11.750      14.54
     11.783      28.96
     11.817      33.65
     11.850      34.13
     11.883      33.79
     11.917      34.58
     11.950      55.63
     11.983      64.04
     12.017      56.41
     12.050      59.81
     12.083      64.61
     12.117      87.08
     12.150      60.31
     12.183      59.17
     12.217      56.20
     12.250      50.09
     12.283      42.09
     12.317      37.48
     12.350      45.55
     12.383      52.21
     12.417      58.17
     12.450      77.99
     12.483      69.27
     12.517      53.46
     12.550      45.00
     12.583      33.83
     12.617      35.37
     12.650      36.24
     12.683      76.74
     12.717      57.51
     12.750      61.30
     12.783      50.68
     12.817      35.15
     12.850      26.91
     12.883      40.99
     12.917      35.35
     12.950      49.97
     12.983      66.07
     13.017      91.14
     13.050     128.14
     13.083     166.02
     13.117     225.51
     13.150     145.16
     13.183     118.08
     13.217     119.35
     13.250     140.41
     13.283     159.30
     13.317    234.093
     13.350     245.21
     13.383     249.62
     13.417     252.23
     13.450     238.89
     13.483     356.41
     13.517     252.60
     13.550     300.86
     13.583     280.27
     13.617     451.76
     13.650     215.33
     13.683     167.61
     13.717     141.43
     13.750      69.83
     13.783      49.10
     13.817      59.06
     13.850      41.22
     13.883      51.64
     13.917      64.36
     13.950      89.01
     13.983     150.15
     14.017     129.59
     14.050     157.71
     14.083     193.71
     14.117     222.99
     14.150     269.48
     14.183     401.65
     14.217     255.38
     14.250     173.92
     14.283     125.80
     14.317     182.29
     14.350     154.49
     14.383     273.58
     14.417     177.95
     14.450     188.37
     14.483     231.54
     14.517     150.75
     14.550     258.52
     14.583     188.66
     14.617     300.65
     14.650     191.97
     14.683     351.29
     14.717     261.61
     14.750     431.31
     14.783     302.58
     14.817     452.87
     14.850     294.94
     14.883     389.23
     14.917     217.75
     14.950     288.80
     14.983     149.25
     15.017     216.90
     15.050     157.43
     15.083     328.93
     15.117     237.38
     15.150     223.25
     15.183     241.06
     15.217     137.12
     15.250      96.04
     15.283     120.37
     15.317      90.96
     15.350     130.56
     15.383      90.01
     15.417     118.17
     15.450     191.28
     15.483     126.10
     15.517     156.80
     15.550      95.62
     15.583     136.07
     15.617     148.61
     15.650     138.06
     15.683     227.52
     15.717     220.59
     15.750     118.16
     15.783     170.69
     15.817      73.51
     15.850      93.02
     15.883      78.62
     15.917      70.10
     15.950     127.29
     15.983     147.51
     16.017     118.33
     16.050     164.09
     16.083     206.12
     16.117     134.77
     16.150     271.68
     16.183     276.67
     16.217     210.65
     16.250     361.27
     16.283     229.41
     16.317     377.83
     16.350     408.34
     16.383     270.82
     16.417     454.35
     16.450     588.77
     16.483     422.05
     16.517     681.13
     16.550     810.23
     16.583     503.54
     16.617     738.03
     16.650     649.15
     16.683     374.14
     16.717     457.62
     16.750     270.62
     16.783     179.97
     16.817     300.26
     16.850     314.88
     16.883     465.74
     16.917     341.23
     16.950     490.83
     16.983     526.88
     17.017     455.58
     17.050     477.93
     17.083     257.99
     17.117     406.03
     17.150     434.67
     17.183     357.79
     17.217     317.82
     17.250     188.24
     17.283     263.10
     17.317     251.18
     17.350     206.39
     17.383     101.39
     17.417     164.44
     17.450     120.75
     17.483     118.86
     17.517     107.89
     17.550      76.65
     17.583     125.76
     17.617     122.32
     17.650     153.31
     17.683     146.21
     17.717     146.15
     17.750     143.33
     17.783     105.47
     17.817      78.84
     17.850      81.81
     17.883      60.18
     17.917      75.94
     17.950      53.97
     17.983      74.33
     18.017      74.08
     18.050      75.79
     18.083      88.39
     18.117      88.75
     18.150     140.94
     18.183     167.07
     18.217     200.30
     18.250     226.94
     18.283     252.03
     18.317     256.08
     18.350     205.89
     18.383     195.13
     18.417     121.00
     18.450      84.69
     18.483      62.04
     18.517      54.93
     18.550      39.93
     18.583      55.82
     18.617      28.20
     18.650      20.04
     18.683      13.34
     18.717       7.49
     18.750       9.10
     18.783       5.58
     18.817       5.63
     18.850       4.83
     18.883      65.53
ENDDATA            217
ENDSUBENT          229
ENDENTRY             4
