ENTRY            F0038   20200129   20200330   20200326       F074
SUBENT        F0038001   20200129   20200330   20200326       F074
BIB                 11         17
TITLE       11B excited states from 4He+7Li scattering
AUTHOR     (J.P.Stoquert,N.Bendjaballah,H.Beaumevieille,
           C.Gerardin,R.Seltz)
INSTITUTE  (2FR STR)
           (3ALGALG) C.S.T.N., B.P. 1017, Alger, Algerie
REFERENCE  (J,JPR,40,813,1979)
FACILITY   (VDG,2FR STR)
SAMPLE     The target consisted of 20 mu-g/cm**2 7Li evaporated
           on 15 mu-g/cm**2 12C.
METHOD     (BCINT)
MONITOR    (3-LI-7(A,EL)3-LI-7,,DA)
MONIT-REF  (F0029001,R.Y.Cusson,J,NP,86,481,1966)
DETECTOR   (SIBAR) 500 mu-m barrier surface Semi-conductor detect.
HISTORY    (19840102C)
           (19990407A) CNPD: corrected 4-dig. year
           (20200129A) SD: Corrections in all Subents according to
           new EXFOR rules. BIB updated. MONITOR/REF added.
ENDBIB              17
NOCOMMON             0          0
ENDSUBENT           20
SUBENT        F0038002   20200129   20200330   20200326       F074
BIB                  3          5
REACTION   (3-LI-7(A,EL)3-LI-7,,DA)
STATUS     (CURVE) Fig. 3 from J.de Pys.,40(1979)813
HISTORY    (20200129A) SD: SF9=EXP deleted from REACTION code.
           EN-ERR -> EN-ERR-DIG; DATA-ERR -> ERR-DIG. ERR-ANALYS
           deleted. STATUS updated.  Data were re-digitized.
ENDBIB               5
COMMON               2          3
EN-ERR-DIG ERR-DIG
MEV        MB/SR
   0.004      3.0
ENDCOMMON            3
DATA                 3        239
ANG        EN         DATA
ADEG       MEV        MB/SR
       40.0      1.368     1003.2
       40.0      1.395      969.4
       40.0      1.435      981.4
       40.0      1.464      834.0
       40.0      1.505      812.1
       40.0      1.544      754.6
       40.0      1.580      778.4
       40.0      1.619      614.1
       40.0      1.657      687.1
       40.0      1.700      683.8
       40.0      1.740      589.0
       40.0      1.774      567.1
       40.0      1.816      497.7
       40.0      1.861      531.7
       40.0      1.895      538.6
       40.0      1.935      574.3
       40.0      1.974      476.1
       40.0      2.012      494.9
       40.0      2.052      391.6
       40.0      2.092      415.4
       40.0      2.129      457.9
       40.0      2.174      400.4
       40.0      2.210      432.7
       40.0      2.264      387.1
       40.0      2.294      316.0
       40.0      2.332      395.7
       40.0      2.376      268.7
       40.0      2.397      287.4
       40.0      2.437      245.2
       40.0      2.474      236.8
       40.0      2.517      311.5
       40.0      2.559      216.7
       40.0      2.597      245.6
       40.0      2.679      252.6
       40.0      2.717      315.4
       40.0      2.756      402.0
       40.0      2.798      407.2
       40.0      2.841      448.0
       40.0      2.883      446.4
       40.0      2.918      453.3
       40.0      2.944      419.4
       40.0      2.976      375.5
       40.0      3.021      372.2
       40.0      3.063      345.2
       40.0      3.101      336.8
       40.0      3.146      364.1
       40.0      3.184      352.3
       40.0      3.223      337.2
       50.0      1.366      429.5
       50.0      1.394      393.7
       50.0      1.422      346.0
       50.0      1.464      342.7
       50.0      1.504      349.6
       50.0      1.544      289.9
       50.0      1.580      380.4
       50.0      1.622      295.2
       50.0      1.661      240.7
       50.0      1.704      240.8
       50.0      1.740      240.8
       50.0      1.817      239.3
       50.0      1.862      268.4
       50.0      1.892      287.2
       50.0      1.939      249.7
       50.0      1.980      224.2
       50.0      2.020      251.6
       50.0      2.057      217.5
       50.0      2.097      222.7
       50.0      2.137      197.2
       50.0      2.180      195.6
       50.0      2.220      211.0
       50.0      2.252      199.1
       50.0      2.298      153.2
       50.0      2.375      146.5
       50.0      2.398      117.5
       50.0      2.442      132.9
       50.0      2.480      180.8
       50.0      2.520      138.2
       50.0      2.560      134.9
       50.0      2.599      153.7
       50.0      2.643      198.2
       50.0      2.683      229.0
       50.0      2.723      259.8
       50.0      2.761      275.2
       50.0      2.796      270.1
       50.0      2.839      263.4
       50.0      2.887      236.2
       50.0      2.919      232.8
       50.0      2.942      207.3
       50.0      2.984      180.1
       50.0      3.022      171.6
       50.0      3.062      170.0
       50.0      3.104      175.2
       50.0      3.147      171.8
       50.0      3.190      168.5
       50.0      3.227      156.6
       60.0      1.362      288.0
       60.0      1.395      266.0
       60.0      1.427      242.4
       60.0      1.463      230.6
       60.0      1.502      227.3
       60.0      1.545      217.2
       60.0      1.583      183.4
       60.0      1.622      146.3
       60.0      1.660      132.8
       60.0      1.698      132.8
       60.0      1.742      119.4
       60.0      1.780      139.7
       60.0      1.816      122.8
       60.0      1.858      131.3
       60.0      1.901      128.0
       60.0      1.943      136.4
       60.0      1.981      131.4
       60.0      2.011      139.9
       60.0      2.056      118.0
       60.0      2.099      112.9
       60.0      2.141      111.3
       60.0      2.181      114.7
       60.0      2.221      113.0
       60.0      2.263      109.7
       60.0      2.296       87.8
       60.0      2.336      113.1
       60.0      2.374       89.5
       60.0      2.401       76.0
       60.0      2.438       91.3
       60.0      2.478       96.4
       60.0      2.519      113.3
       60.0      2.561      126.8
       60.0      2.644      182.6
       60.0      2.680      202.9
       60.0      2.720      226.6
       60.0      2.760      213.1
       60.0      2.805      186.2
       60.0      2.840      171.0
       60.0      2.884      160.9
       60.0      2.925      149.1
       60.0      2.947      133.9
       60.0      2.982      118.8
       60.0      3.027      117.1
       60.0      3.069      107.0
       60.0      3.103       93.5
       60.0      3.145       86.8
       60.0      3.192       91.9
       60.0      3.232       81.8
       70.0      1.364      161.1
       70.0      1.394      140.7
       70.0      1.424      135.7
       70.0      1.458      132.3
       70.0      1.502      125.6
       70.0      1.540      127.3
       70.0      1.580      124.0
       70.0      1.621      120.6
       70.0      1.663      117.3
       70.0      1.698      122.4
       70.0      1.740      107.2
       70.0      1.780       93.7
       70.0      1.818       80.1
       70.0      1.856       81.9
       70.0      1.896       73.4
       70.0      1.934       76.9
       70.0      1.976      104.1
       70.0      2.016       83.8
       70.0      2.047       80.4
       70.0      2.092       94.1
       70.0      2.134       72.0
       70.0      2.175       84.0
       70.0      2.219       94.2
       70.0      2.252       82.4
       70.0      2.293       77.3
       70.0      2.335      101.2
       70.0      2.378       77.4
       70.0      2.398       75.8
       70.0      2.438       84.3
       70.0      2.480       86.1
       70.0      2.518      103.1
       70.0      2.563      109.9
       70.0      2.639      133.8
       70.0      2.681      128.8
       70.0      2.721      159.4
       70.0      2.764      144.1
       70.0      2.801      117.0
       70.0      2.841      110.3
       70.0      2.884      101.8
       70.0      2.924       93.4
       70.0      2.940       76.5
       70.0      2.982       76.5
       70.0      3.029       74.9
       70.0      3.062       64.7
       70.0      3.105       47.8
       70.0      3.140       37.7
       70.0      3.185       37.7
       70.0      3.225       36.1
       90.0      1.362      119.3
       90.0      1.380       97.6
       90.0      1.420      112.6
       90.0      1.458      102.6
       90.0      1.498       99.3
       90.0      1.538      104.3
       90.0      1.576       96.0
       90.0      1.621       81.0
       90.0      1.657       82.7
       90.0      1.699       92.7
       90.0      1.736       72.7
       90.0      1.780       66.0
       90.0      1.822       56.0
       90.0      1.862       56.1
       90.0      1.897       46.0
       90.0      1.937       49.4
       90.0      1.975       47.8
       90.0      2.053       37.8
       90.0      2.091       36.1
       90.0      2.130       56.2
       90.0      2.171       71.3
       90.0      2.213       68.0
       90.0      2.252       74.7
       90.0      2.292       61.3
       90.0      2.331       64.7
       90.0      2.372       66.4
       90.0      2.399       68.1
       90.0      2.435       71.5
       90.0      2.475       66.5
       90.0      2.515       99.9
       90.0      2.560       94.9
       90.0      2.598       73.2
       90.0      2.635      115.0
       90.0      2.683       98.4
       90.0      2.720      108.4
       90.0      2.759       66.6
       90.0      2.801       58.3
       90.0      2.839       45.0
       90.0      2.879       48.3
       90.0      2.919       41.7
       90.0      2.944       41.7
       90.0      2.982       33.3
       90.0      3.022       36.7
       90.0      3.060       41.7
       90.0      3.099       26.7
       90.0      3.140       13.4
       90.0      3.183       23.4
       90.0      3.228       15.1
ENDDATA            241
ENDSUBENT          255
ENDENTRY             2
