ENTRY            F0046   19990407   19990427
SUBENT        F0046001   19990407   19990427
BIB                 10         16
TITLE      Li-6 - alpha scattering below 3 MeV
AUTHOR     (P.HEUSI,M.BERTA,V.MEYER,R.E.PIXLEY)
INSTITUTE  (2SWTZUR)
REFERENCE  (J,NP/A,357,(2),381,198104)
SAMPLE     The targets were LiF (96.3% 6Li/Li) evaporated onto
           carbon foils. Typical target thickness was 3 mu-g/cm2
           LiF on 8 mu-g/cm2 carbon.
FACILITY   (VDG)
DETECTOR   (NAICR) Four 7.5cm x 7.5 cm NaI(Tl) detectors and
           two monitor detectors at 45 and 135 degr. were employed
           along with a movable detector.
MONITOR    ((MONIT)3-LI-6(A,EL)3-LI-6,,DA,,,EXP) Three independent
           measurements were made.
ERR-ANALYS (ERR-T) Total error
HISTORY    (19840402C)
           (19990407A) CNPD: corrected 4-dig. year
ENDBIB              16
COMMON               4          3
EN-NRM     ANG-NRM    MONIT      ERR-T
MEV        ADEG       MB/SR      PER-CENT
  2.58      75.0        143.7      5.0
ENDCOMMON            3
ENDSUBENT           23
SUBENT        F0046002   19990407   19990427
BIB                  3          5
REACTION   (3-LI-6(A,EL)3-LI-6,,DA,,,EXP)
ERR-ANALYS (ANG-ERR) Digitizing error
           (DATA-ERR) From error bars (counting statistics) and
           digitizing error
STATUS     (CURVE) fig 2,3
ENDBIB               5
COMMON               1          3
ANG-ERR
ADEG
 0.4
ENDCOMMON            3
DATA                 4        164
EN         ANG-CM     DATA-CM    DATA-ERR
MEV        ADEG       MB/SR      MB/SR
     1.4       40.06    4265.        83.26
     1.4       44.93    2259.        42.35
     1.4       49.74    1597.        31.19
     1.4       55.12     996.6       13.6
     1.4       60.1      733.5        9.444
     1.4       65.21     501.8        9.797
     1.4       69.85     385.8        7.532
     1.4       75.12     316.4        6.177
     1.4       80.11     265.3        5.18
     1.4       85.04     237.4        4.635
     1.4       90.09     217.2        4.24
     1.4       95.26     207.6        4.054
     1.4       99.69     216.2        4.221
     1.4      105.1      206.5        4.032
     1.4      110.1      215.2        4.202
     1.4      114.9      214.6        4.191
     1.4      119.7      223.6        4.365
     1.4      125.3      233.         4.549
     1.4      129.7      248.1        4.844
     1.4      135.1      253.1        4.941
     1.4      139.8      263.6        5.147
     1.4      145.1      262.9        5.133
     1.4      150.1      274.1        5.351
     1.4      155.1      273.4        5.337
     1.4      159.9      284.9        5.561
     1.4      164.9      284.2        5.549
     1.64      40.12    2728.        59.22
     1.64      45.19    1760.        38.22
     1.64      49.79    1186.        25.75
     1.64      55.22     852.9       18.52
     1.64      59.86     613.6       13.32
     1.64      65.1      441.         9.574
     1.64      70.19     353.8        7.682
     1.64      75.3      290.1        6.3
     1.64      80.12     243.1        5.278
     1.64      84.97     217.6        4.725
     1.64      90.1      186.3        4.045
     1.64      95.17     170.4        3.699
     1.64     100.1      159.3        3.458
     1.64     105.3      158.9        3.45
     1.64     110.3      162.1        3.52
     1.64     115.1      169.1        3.673
     1.64     119.9      184.2        3.998
     1.64     124.9      187.8        4.077
     1.64     129.9      204.6        4.442
     1.64     135.1      208.5        4.526
     1.64     140.1      217.4        4.72
     1.64     145.       236.8        5.141
     1.64     150.1      241.4        5.242
     1.64     154.9      251.8        5.467
     1.64     160.3      256.8        5.575
     1.64     165.1      261.9        5.686
     1.9       40.1     2146.        45.2
     1.9       45.19    1384.        29.16
     1.9       50.09     912.4       19.22
     1.9       55.12     628.1       13.23
     1.9       59.81     493.1       10.39
     1.9       64.7      378.6        7.975
     1.9       69.99     284.4        5.99
     1.9       74.93     243.7        5.133
     1.9       79.93     191.2        4.028
     1.9       85.16     160.3        3.376
     1.9       89.92     137.3        2.891
     1.9       94.97     120.2        2.531
     1.9       99.95     107.5        2.265
     1.9      105.1      109.7        2.31
     1.9      109.8      109.4        2.305
     1.9      114.9      109.2        2.3
     1.9      119.8      127.         2.674
     1.9      124.9      138.3        2.912
     1.9      129.8      157.3        3.313
     1.9      135.       171.2        3.607
     1.9      139.9      186.5        3.928
     1.9      144.9      207.6        4.373
     1.9      149.6      221.1        4.658
     1.9      154.8      230.5        4.856
     1.9      160.1      235.1        4.951
     1.9      164.9      234.6        4.941
     1.9      169.8      234.1        4.931
     1.9      174.9      238.8        5.03
     2.3       40.16    1379.        24.11
     2.3       45.1      930.8       16.27
     2.3       50.1      685.        11.98
     2.3       54.81     504.3        8.816
     2.3       60.15     396.1        6.925
     2.3       65.07     304.4        5.322
     2.3       69.03     244.6        4.275
     2.3       74.86     188.         3.286
     2.3       80.19     144.5        2.526
     2.3       84.89     106.3        1.859
     2.3       89.05      85.4        1.493
     2.3       94.93      71.62       1.252
     2.3       99.96      64.11       1.121
     2.3      104.9       65.35       1.143
     2.3      110.2       69.57       1.216
     2.3      115.3       77.4        1.353
     2.3      119.8       96.04       1.679
     2.3      125.1      114.         1.992
     2.3      129.9      141.2        2.469
     2.3      134.9      157.1        2.746
     2.3      139.8      186.4        3.259
     2.3      144.9      225.9        3.949
     2.3      149.8      235.7        4.12
     2.3      155.       262.         4.581
     2.3      159.8      279.         4.878
     2.3      165.1      297.         5.193
     2.3      169.8      303.         5.298
     2.3      175.       289.4        5.059
     2.6       39.98    1153.        32.3
     2.6       44.94     775.        21.72
     2.6       49.86     581.5       16.3
     2.6       54.96     417.5       11.7
     2.6       59.92     334.4        9.371
     2.6       64.86     256.4        7.185
     2.6       69.81     201.         5.633
     2.6       74.93     150.8        4.227
     2.6       79.96     113.2        3.171
     2.6       84.98      84.89       2.379
     2.6       89.19      62.29       1.745
     2.6       94.97      51.03       1.43
     2.6       99.89      44.62       1.25
     2.6      104.9       43.56       1.22
     2.6      109.9       51.79       1.451
     2.6      115.2       62.92       1.763
     2.6      120.1       76.47       2.143
     2.6      124.8       99.33       2.783
     2.6      129.8      123.4        3.457
     2.6      135.       149.9        4.2
     2.6      139.9      170.6        4.781
     2.6      144.8      202.8        5.683
     2.6      150.1      225.7        6.324
     2.6      154.7      251.5        7.047
     2.6      160.1      273.7        7.669
     2.6      164.9      284.2        5.549
     2.6      169.8      317.7        8.901
     2.6      174.9      303.4        8.501
     3.        39.9      890.        14.93
     3.        44.91     626.5       10.51
     3.        50.1      476.1        8.331
     3.        55.11     361.3        6.06
     3.        59.86     271.5        4.554
     3.        64.91     208.6        3.498
     3.        70.14     149.9        2.514
     3.        74.89     115.2        1.932
     3.        79.99      79.3        1.33
     3.        85.16      52.24       0.8762
     3.        90.        38.42       0.6444
     3.        95.14      28.86       0.4841
     3.        99.82      27.58       0.4627
     3.       105.1       30.69       0.5148
     3.       110.1       39.8        0.6675
     3.       115.        55.1        0.9241
     3.       120.        73.03       1.225
     3.       124.9       94.72       1.589
     3.       129.9      122.8        2.059
     3.       134.9      152.4        2.556
     3.       139.8      185.1        3.105
     3.       145.       236.8        5.141
     3.       149.8      244.9        4.108
     3.       155.3      284.6        4.773
     3.       160.1      316.8        5.312
     3.       165.1      337.3        5.656
     3.       170.1      359.5        6.029
     3.       175.2      374.6        6.283
ENDDATA            166
ENDSUBENT          180
ENDENTRY             2
