ENTRY            F0098   20200424   20200626   20200624       F076
SUBENT        F0098001   20200424   20200626   20200624       F076
BIB                  9         13
TITLE      The excited states of 10B
AUTHOR     (A.A.Fife,G.C.Neilson,W.K.Dawson)
INSTITUTE  (1CANALA)
REFERENCE  (J,NP/A,91,164,1967)
FACILITY   (VDG,1CANALA)
SAMPLE     The 9Be target consisted of a thin film of beryllium
           metal vacuum deposited on a molybdenum foil
METHOD     (TOF,PHD)
DETECTOR   A high resolution neutron time-of-flight
           spectrometer
HISTORY    (19821112C)
           (19990407A) CNPD: corrected 4-dig. year
           (20200424A) SD: Corrections in all Subents.
ENDBIB              13
NOCOMMON             0          0
ENDSUBENT           16
SUBENT        F0098002   20200424   20200626   20200624       F076
BIB                  4          7
REACTION   (4-BE-9(D,N)5-B-10,PAR,DA,,REL)
            No explanation of relative units is given
ERR-ANALYS (ERR-S) From graphic bars (statistical)
STATUS     (CURVE) fig 4,5,6 from Nucl.Phys.,A91(1967)164
HISTORY    (20200424A) SD: SF9=EXP deleted from REACTION code.
           EN-SEC deleted. ANG-ERR -> ANG-ERR-D. ERR-ANALYS,
           STATUS updated. DATA-ERR -> ERR-S.
ENDBIB               7
COMMON               2          3
EN         ANG-ERR-D
MEV        ADEG
  5.540     0.5
ENDCOMMON            3
DATA                 4        175
E-LVL      ANG-CM     DATA-CM    ERR-S
MEV        ADEG       ARB-UNITS  ARB-UNITS
         0.        0.1  2.855E+05  3.813E+04
         0.        6.2  3.955E+05  5.282E+04
         0.       10.5  5.343E+05  4.174E+04
         0.       16.1  7.218E+05  3.712E+04
         0.       21.8  9.752E+05  2.476E+04
         0.       26.1  9.752E+05  2.476E+04
         0.       31.9  8.390E+05  8.851E+04
         0.       37.8  7.040E+05  1.787E+04
         0.       48.7  4.055E+05  7.780E+04
         0.       63.3  2.582E+05  2.017E+04
         0.       79.1  2.166E+05  3.517E+04
         0.      104.4  1.864E+05  2.489E+04
         0.      114.4  2.648E+05  2.793E+04
         0.      122.9  3.236E+05  5.253E+04
         0.      135.9  3.236E+05  3.414E+04
         0.      147.4  3.156E+05  4.215E+04
       0.72        0.5  2.989E+04  3.992E+03
       0.72        5.5  3.562E+04  6.835E+03
       0.72        9.7  5.060E+04  6.759E+03
       0.72       15.4  6.184E+04  6.524E+03
       0.72       21.8  9.237E+04  2.345E+03
       0.72       23.9  9.712E+04  2.466E+03
       0.72       31.2  7.558E+04  7.973E+03
       0.72       37.0  6.184E+04  3.180E+03
       0.72       48.8  2.637E+04  3.522E+03
       0.72       65.6  1.069E+04  1.428E+03
       0.72       79.4  9.198E+03  1.493E+03
       0.72      103.8  9.671E+03  1.020E+03
       0.72      113.9  9.671E+03  1.292E+03
       0.72      122.6  8.748E+03  1.678E+03
       0.72      137.0  8.748E+03  1.420E+03
       0.72      149.8  1.340E+04  1.790E+03
       1.74        0.3  5.571E+03  7.441E+02
       1.74        5.3  5.857E+03  1.124E+03
       1.74        8.9  6.475E+03  1.051E+03
       1.74       14.6  7.718E+03  1.959E+02
       1.74       20.3  1.017E+04  2.582E+02
       1.74       26.1  8.748E+03  2.221E+02
       1.74       31.2  6.808E+03  3.501E+02
       1.74       37.1  4.793E+03  7.781E+02
       1.74       48.1  1.943E+03  4.317E+02
       1.74       64.1  1.301E+03  3.708E+02
       1.74       79.9  1.403E+03  3.998E+02
       1.74      104.6  6.133E+02  1.748E+02
       1.74      114.7  7.880E+02  2.766E+02
       1.74      123.2  1.038E+03  1.387E+02
       1.74      136.1  1.334E+03  2.560E+02
       1.74      150.6  1.065E+03  1.728E+02
       2.15        0.4  4.106E+02  7.878E+01
       2.15        4.6  4.773E+02  6.375E+01
       2.15        9.7  4.773E+02  9.157E+01
       2.15       16.9  5.276E+02  8.566E+01
       2.15       21.7  9.875E+02  2.507E+01
       2.15       26.8  8.712E+02  2.212E+01
       2.15       31.1  7.495E+02  7.907E+01
       2.15       38.5  5.276E+02  5.566E+01
       2.15       48.6  4.427E+02  4.670E+01
       2.15       64.5  3.714E+02  3.918E+01
       2.15       80.4  3.195E+02  3.371E+01
       2.15      104.9  2.615E+02  2.758E+01
       2.15      114.2  3.714E+02  4.961E+01
       2.15      123.5  3.533E+02  6.778E+01
       2.15      137.9  4.539E+02  7.369E+01
       2.15      150.8  4.106E+02  4.332E+01
       3.59        0.7  1.110E+01  2.818E-01
       3.59        5.0  1.167E+01  1.231E+00
       3.59       10.8  1.110E+01  8.673E-01
       3.59       16.6  8.425E+00  2.139E-01
       3.59       22.4  1.004E+01  2.550E-01
       3.59       28.1  9.314E+00  2.365E-01
       3.59       34.0  7.069E+00  1.795E-01
       3.59       39.0  6.395E+00  1.624E-01
       3.59       50.6  5.784E+00  6.102E-01
       3.59       65.8  4.733E+00  6.322E-01
       3.59       81.6  4.281E+00  4.517E-01
       3.59      106.2  3.503E+00  7.781E-01
       3.59      116.2  4.502E+00  6.012E-01
       3.59      124.8  4.733E+00  4.993E-01
       3.59      139.3  3.777E+00  5.045E-01
       3.59      152.3  3.416E+00  4.563E-01
       4.77        0.3  9.361E+04  1.226E+04
       4.77        6.1  1.011E+05  1.901E+04
       4.77       11.8  8.737E+04  1.144E+04
       4.77       16.1  9.425E+04  1.237E+04
       4.77       21.8  8.559E+04  6.574E+03
       4.77       27.5  1.071E+05  2.675E+03
       4.77       33.9  1.048E+05  2.617E+03
       4.77       38.9  1.024E+05  2.559E+03
       4.77       48.9  1.029E+05  2.569E+03
       4.77       66.0  1.036E+05  2.587E+03
       4.77       81.7  1.179E+05  2.946E+03
       4.77      104.6  1.052E+05  2.629E+03
       4.77      116.0  1.167E+05  2.915E+03
       4.77      124.5  1.392E+05  3.476E+03
       4.77      139.0  8.981E+04  2.243E+03
       4.77      150.6  5.375E+04  8.611E+03
       5.11        0.4  9.677E+03  2.417E+02
       5.11        5.5  8.786E+03  2.194E+02
       5.11       11.4  4.753E+03  1.187E+02
       5.11       16.5  3.210E+03  8.017E+01
       5.11       22.4  2.064E+03  5.155E+01
       5.11       27.7  9.163E+02  1.197E+02
       5.11       33.6  4.837E+02  7.699E+01
       5.11       39.3  4.502E+02  8.470E+01
       5.11       49.3  5.786E+02  9.229E+01
       5.11       64.9  6.587E+02  1.645E+01
       5.11       82.2  4.697E+02  1.021E+02
       5.11      106.8  1.858E+02  2.964E+01
       5.11      116.7  2.571E+02  2.666E+01
       5.11      125.2  2.711E+02  5.109E+01
       5.11      152.0  1.128E+02  2.121E+01
       5.16        0.0  5.717E+01  9.119E+00
       5.16        5.8  5.890E+01  1.388E+01
       5.16       11.3  1.013E+02  1.330E+01
       5.16       16.4  7.738E+01  1.013E+01
       5.16       23.0  4.622E+01  4.793E+00
       5.16       27.4  3.120E+01  5.891E+00
       5.16       33.2  2.108E+01  2.186E+00
       5.16       39.0  1.778E+01  4.425E+00
       5.16       50.6  1.234E+01  2.691E+00
       5.16       66.6  4.863E+00  1.063E+00
       5.16       82.3  4.894E+00  1.069E+00
       5.16      107.9  7.711E+00  3.900E-01
       5.16      118.0  5.759E+00  9.186E-01
       5.16      153.8  4.567E+00  1.571E+00
       5.93        1.3  1.000E+06  2.516E+04
       5.93        7.0  9.760E+05  4.967E+04
       5.93        7.0  9.287E+05  1.484E+05
       5.93       12.7  9.291E+05  1.228E+05
       5.93       12.7  8.412E+05  7.963E+04
       5.93       17.7  8.844E+05  6.348E+04
       5.93       18.4  9.295E+05  9.702E+04
       5.93       24.1  8.420E+05  8.799E+04
       5.93       24.8  7.624E+05  5.481E+04
       5.93       29.7  6.098E+05  8.064E+04
       5.93       29.7  5.660E+05  7.846E+04
       5.93       34.6  3.445E+05  5.541E+04
       5.93       35.3  3.119E+05  5.623E+04
       5.93       39.6  2.558E+05  2.673E+04
       5.93       51.6  1.342E+05  2.157E+04
       5.93       67.9  8.592E+04  1.381E+04
       5.93       67.9  7.779E+04  8.129E+03
       5.93       83.6  8.603E+04  1.551E+04
       5.93       84.4  9.741E+04  1.018E+04
       5.93      108.5  4.990E+04  8.020E+03
       5.93      117.8  5.516E+04  2.811E+03
       5.93      127.9  6.569E+04  1.248E+04
       5.93      140.8  7.634E+04  1.010E+04
       5.93      153.6  6.749E+04  1.485E+04
       6.03        1.1  1.008E+04  1.619E+03
       6.03        5.3  8.690E+03  2.178E+03
       6.03       11.7  6.140E+03  1.539E+03
       6.03       17.4  5.292E+03  1.164E+03
       6.03       23.8  5.295E+03  1.164E+03
       6.03       29.5  5.297E+03  1.494E+03
       6.03       34.4  3.561E+03  7.831E+02
       6.03       40.0  2.012E+03  9.087E+02
       6.03       50.0  2.064E+03  6.488E+02
       6.03       68.7  3.233E+03  3.381E+02
       6.03      108.6  2.180E+03  4.794E+02
       6.03      118.7  2.661E+03  5.853E+02
       6.14        0.6  8.832E+02  1.168E+02
       6.14        6.3  8.000E+02  1.520E+02
       6.14       11.3  8.839E+02  1.422E+02
       6.14       17.8  9.768E+02  1.021E+02
       6.14       22.1  1.002E+03  7.760E+01
       6.14       29.2  9.778E+02  1.572E+02
       6.14       34.1  8.018E+02  1.763E+02
       6.14       41.3  8.861E+02  1.424E+02
       6.14       51.3  7.453E+02  7.788E+01
       6.14       84.0  3.459E+02  5.564E+01
       6.14      109.6  2.272E+02  3.006E+01
       6.14      119.6  2.059E+02  1.591E+01
       6.14      128.2  2.165E+02  5.427E+01
       6.14      141.0  1.569E+02  4.428E+01
ENDDATA            177
ENDSUBENT          193
ENDENTRY             2
