ENTRY            13738   20050722   20050909                  1336
SUBENT        13738001   20050722   20050909                  1336
BIB                 11         18
INSTITUTE  (1USAORL,1USAKTY,1CANQU)
REFERENCE  (J,PR/C,34,429,1986)
AUTHOR     (D.J.Horen,C.H.Johnson,J.L.Fowler,A.D.Mackellar,
           B.Castel)
TITLE      208Pb+n reaction and the mean nuclear field
            near threshold
FACILITY   (LINAC) ORELA
INC-SOURCE (PHOTO) Photoneutrons from 140 MeV electron pulses,
            using a Be-clad, water-moderated tantalum target.
SAMPLE     Radiogenic lead sample, 72.4% 208Pb; areal density
            45.71 g/cm2, plus natural lead sample; areal density
            1.973 g/cm2.
METHOD     (TOF) 200-m flight path.
DETECTOR   (SCIN) 7.62cm diam x 2 cm thick NE110 Plastic
             scintillator
CORRECTION Corrected for dead-time and background.
HISTORY    (20000223C) TK
           (20050722C) DR Format updated and reference corrected
ENDBIB              18
NOCOMMON             0          0
ENDSUBENT           21
SUBENT        13738002   20000327   20050909                  1336
BIB                  4          8
REACTION  1(82-PB-208(N,0),,EN)
          2(82-PB-208(N,0),,L)
          3(82-PB-208(N,0),,J)
          4(82-PB-208(N,EL),,WID)
          5(82-PB-208(N,TOT),,WID/RED,,RMT)
ERR-ANALYS (DATA-ERR) No information on source of uncertainties.
FLAG       (1.) Spin and momentum l values assumed.
STATUS     Data taken from Table 1
ENDBIB               8
COMMON               1          3
DATA-ERR  1
PER-CENT
  0.03
ENDCOMMON            3
DATA                 7         64
DATA      1DATA      2DATA      3DATA      4DATA-ERR  4DATA      5
FLAG
KEV        NO-DIM     NO-DIM     EV         EV         EV
NO-DIM
  47.26     2.         1.5          0.02       0.01        5.
 1.
  71.21     1.         1.5        101.         5.        368.

  78.25     1.         1.5        958.        10.       3111.

  86.56     1.         0.5         75.4        3.0       216.

 117.22     1.         1.5        317.         6.        634.

 130.17     2.         2.5          9.7        0.9       207.
 1.
 153.25     1.         1.5         10.5        1.0        15.
 1.
 163.50     1.         1.5          8.2        1.0        11.
 1.
 168.00     2.         2.5          7.6        0.8        90.
 1.
 168.53     1.         1.5         28.4        1.4        37.

 169.38     2.         1.5         21.9        1.6       258.
 1.
 270.10     2.         1.5        120.         4.        521.

 277.99     1.         0.5        315.         9.        254.

 324.23     1.         1.5        135.         3.         94.

 354.0      3.         2.5         23.         2.        715.
 1.
 354.1      2.         1.5       4989.        16.      12769.

 407.1      1.         1.5        222.         4.        127.

 418.5      1.         1.5         76.         2.         42.

 438.3      3.         2.5         10.5        1.2       169.
 1.
 489.0      1.         0.5       2992.        35.       1470.

 505.7      1.         1.5        194.         6.         93.

 506.0      0.         0.5       53590.      250.      17782.

 527.1      2.         2.5       4625.        50.       5829.

 563.9      1.         0.5        531.        15.        233.

 567.6      3.         3.5         16.2        1.8       121.
 1.
 570.8      2.         1.5          9.9        1.1        11.
 1.
 583.6      3.         2.5         34.         3.        235.
 1.
 597.6      3.         2.5         74.         4.        475.
 1.
 609.1      3.         2.5        119.         5.        729.
 1.
 613.0      3.         3.5        140.         3.        842.
 1.
 615.9      2.         2.5         30.         2.         28.
 1.
 634.9      3.         2.5        623.         9.       3389.

 636.1      3.         3.5        293.         5.       1588.

 686.8      3.         2.5        191.         9.        836.

 693.2      3.         2.5         74.         5.        314.
 1.
 699.5      2.         2.5        304.         4.        247.

 721.0      2.         2.5       3938.        43.       3051.

 721.7      1.         1.5        564.        15.        205.

 723.0      3.         3.5        165.         6.        628.
 1.
 739.1      3.         2.5        193.         5.        691.

 764.3      1.         1.5       2643.        30.        922.

 764.9      3.         3.5        369.         7.       1207.

 786.1      3.         2.5        116.         5.        354.

 814.1      3.         3.5        114.         5.        316.

 814.4      1.         0.5        375.        19.        125.

 815.7      2.         2.5       8916.        90.       5804.

 824.0      3.         2.5        221.         7.        594.

 832.1      3.         3.5         80.         4.        211.
 1.
 850.5      2.         1.5       4074.        50.       2506.

 861.0      3.         2.5        810.        12.       1950.

 877.8      1.         1.5        848.        15.        153.

 884.8      1.         0.5       4779.        83.       1501.

 888.2      0.         0.5       5490.        75.       1375.

 910.6      1.         0.5        422.        23.        130.

 911.6      3.         3.5        276.         9.        577.

 920.5      3.         2.5        330.        10.        672.

 927.0      1.         0.5        192.        14.         58.

 944.4      2.         1.5       3213.        43.       1724.

 947.2      1.         0.5       1336.        63.        400.

 947.9      1.         1.5       1490.        50.        446.

 949.6      2.         2.5        391.        13.        208.

 974.3      1.         1.5       1647.        52.        484.

 984.2      1.         1.5       2384.        55.        696.

 997.7      0.         0.5       3889.        60.        919.

ENDDATA            132
ENDSUBENT          149
ENDENTRY             2
