ENTRY            13777   20011120   20020410
SUBENT        13777001   20011120   20020410
BIB                 15         20
INSTITUTE  (1USAANL,1USAUAZ)
REFERENCE  (J,JP/G,26,1467,200009)
           (R,ANL-NDM-142,199711)
AUTHOR     (A.B.Smith)
TITLE      Fast-neutron interaction with isotopic and elemental
            molydenum
FACILITY   (DYNAM,1USAANL)
INC-SOURCE (D-D)
INC-SPECT  Pulsed sourse. Energy resolution about 300 keV at 4.5
            MeV, decreasing to 100 keV at 10.0 MeV.
SAMPLE     High-purity molybdenum metal.
METHOD     (TOF)
DETECTOR   (SCIN) Liquid scintillation detectors.
MONITOR    (1-H-1(N,EL)1-H-1,,DA)
MONIT-REF  (,CONDE+,R,IAEA-227,1983)
ERR-ANALYS (DATA-ERR) Uncertainties are best estimate of total
            error, combining systematic and statistical
            uncertainties.
STATUS     (APRVD) Approved by A.Smith, 6 December 2001.
HISTORY    (20011120C)
ENDBIB              20
NOCOMMON             0          0
ENDSUBENT           23
SUBENT        13777002   20011120   20020410
BIB                  2          2
REACTION   (42-MO-0(N,EL)42-MO-0,,DA)
STATUS     Data received by email from A. Smith, 6 July 2001.
ENDBIB               2
NOCOMMON             0          0
DATA                 4        480
EN         ANG        DATA       DATA-ERR
MEV        ADEG       B/SR       PER-CENT
   4.51      17.37       2.004      3.00
   4.51      21.32       1.533      3.00
   4.51      25.28       1.080      3.00
   4.51      27.26       0.9059     3.01
   4.51      29.25       0.6945     3.01
   4.51      31.24       0.5475     3.01
   4.51      35.22       0.2943     3.02
   4.51      39.20       0.1300     3.08
   4.51      42.69       0.05623    7.11
   4.51      46.68       0.02783   14.37
   4.51      50.67       0.04526    8.84
   4.51      54.66       0.08361    4.78
   4.51      58.15       0.1222     3.27
   4.51      62.14       0.1726     3.02
   4.51      66.14       0.2013     3.02
   4.51      70.13       0.2140     3.02
   4.51      73.62       0.2102     3.03
   4.51      77.62       0.1911     3.03
   4.51      81.61       0.1578     3.04
   4.51      85.61       0.1202     3.33
   4.51      89.10       0.08849    4.52
   4.51      93.09       0.05682    7.04
   4.51      97.09       0.03218   12.43
   4.51     101.10       0.01768   22.62
   4.51     105.10       0.01285   31.13
   4.51     109.10       0.01494   26.77
   4.51     113.10       0.02168   18.45
   4.51     117.10       0.03144   12.72
   4.51     120.00       0.04291    9.32
   4.51     124.00       0.05169    7.74
   4.51     128.00       0.05824    6.87
   4.51     132.00       0.06234    6.42
   4.51     135.50       0.06116    6.54
   4.51     139.50       0.05824    6.87
   4.51     143.50       0.05890    6.79
   4.51     145.50       0.05544    7.22
   4.51     147.50       0.05594    7.15
   4.51     149.50       0.05794    6.90
   4.51     153.40       0.06088    6.57
   4.51     157.40       0.06962    5.74
   5.01      17.37       2.182      3.00
   5.01      21.32       1.679      3.00
   5.01      25.28       1.233      3.00
   5.01      27.26       0.9734     3.00
   5.01      29.25       0.7740     3.00
   5.01      31.24       0.5983     3.00
   5.01      35.22       0.3295     3.01
   5.01      39.20       0.1326     3.02
   5.01      42.69       0.04966    8.06
   5.01      46.68       0.02038   19.63
   5.01      50.67       0.03151   12.73
   5.01      54.66       0.07204    5.57
   5.01      58.15       0.1137     3.52
   5.01      62.14       0.1678     3.01
   5.01      66.14       0.2039     3.01
   5.01      70.13       0.2147     3.01
   5.01      73.62       0.2149     3.01
   5.01      77.62       0.1946     3.01
   5.01      81.61       0.1623     3.01
   5.01      85.61       0.1245     3.21
   5.01      89.10       0.09005    4.44
   5.01      93.09       0.05659    7.07
   5.01      97.09       0.02954   13.56
   5.01     101.10       0.01505   26.59
   5.01     105.10       0.01011   39.55
   5.01     109.10       0.01234   32.42
   5.01     113.10       0.02074   19.29
   5.01     117.10       0.03385   11.82
   5.01     120.00       0.04225    9.48
   5.01     124.00       0.05398    7.44
   5.01     128.00       0.06265    6.41
   5.01     132.00       0.06498    6.20
   5.01     135.50       0.06277    6.37
   5.01     139.50       0.05772    6.93
   5.01     143.50       0.05146    7.77
   5.01     145.50       0.04879    8.21
   5.01     147.50       0.04548    8.80
   5.01     149.50       0.04555    8.78
   5.01     153.40       0.04349    9.20
   5.01     157.40       0.04610    8.69
   5.51      17.37       2.149      3.00
   5.51      21.32       1.583      3.00
   5.51      25.28       1.141      3.01
   5.51      27.26       0.8975     3.01
   5.51      29.25       0.7618     3.01
   5.51      31.24       0.5157     3.01
   5.51      35.22       0.2691     3.02
   5.51      39.20       0.1163     3.44
   5.51      42.69       0.03687   10.85
   5.51      46.68       0.01830   21.86
   5.51      50.67       0.03541   11.30
   5.51      54.66       0.07918    5.05
   5.51      58.15       0.1255     3.19
   5.51      62.14       0.1671     3.02
   5.51      66.14       0.1942     3.01
   5.51      70.13       0.2045     3.01
   5.51      73.62       0.1970     3.01
   5.51      77.62       0.1671     3.01
   5.51      81.61       0.1377     3.02
   5.51      85.61       0.1012     3.95
   5.51      89.10       0.07071    5.66
   5.51      93.09       0.04154    9.63
   5.51      97.09       0.02320   17.24
   5.51     101.10       0.01291   30.98
   5.51     105.10       0.00902   44.35
   5.51     109.10       0.01256   31.85
   5.51     113.10       0.02212   18.08
   5.51     117.10       0.03500   11.43
   5.51     120.00       0.04773    8.38
   5.51     124.00       0.05617    7.12
   5.51     128.00       0.06170    6.48
   5.51     132.00       0.06070    6.59
   5.51     135.50       0.05816    6.88
   5.51     139.50       0.04968    8.05
   5.51     143.50       0.04472    8.94
   5.51     145.50       0.04087    9.79
   5.51     147.50       0.03631   11.02
   5.51     149.50       0.03395   11.78
   5.51     153.40       0.03219   12.43
   5.51     157.40       0.03226   12.40
   5.91      17.37       2.486      3.00
   5.91      21.32       1.853      3.00
   5.91      25.28       1.273      3.00
   5.91      27.26       0.9940     3.00
   5.91      29.25       0.7464     3.00
   5.91      31.24       0.5861     3.00
   5.91      35.22       0.2794     3.01
   5.91      39.20       0.09628    3.12
   5.91      42.69       0.03385    8.87
   5.91      46.68       0.01967   15.27
   5.91      50.67       0.04211    7.14
   5.91      54.66       0.09220    3.25
   5.91      58.15       0.1312     3.01
   5.91      62.14       0.1727     3.01
   5.91      66.14       0.1937     3.01
   5.91      70.13       0.1942     3.01
   5.91      73.62       0.1872     3.01
   5.91      77.62       0.1637     3.01
   5.91      81.61       0.1268     3.01
   5.91      85.61       0.08900    3.37
   5.91      89.10       0.06262    4.79
   5.91      93.09       0.03746    8.02
   5.91      97.09       0.01825   16.44
   5.91     101.10       0.01019   29.50
   5.91     105.10       0.00986   30.44
   5.91     109.10       0.01523   19.70
   5.91     113.10       0.02486   12.07
   5.91     117.10       0.03920    7.66
   5.91     120.00       0.04896    6.14
   5.91     124.00       0.05728    5.25
   5.91     128.00       0.05945    5.05
   5.91     132.00       0.06069    4.95
   5.91     135.50       0.05766    5.20
   5.91     139.50       0.05049    5.95
   5.91     143.50       0.04030    7.44
   5.91     145.50       0.03604    8.33
   5.91     147.50       0.03207    9.36
   5.91     149.50       0.03041    9.87
   5.91     153.40       0.02564   11.70
   5.91     157.40       0.02493   12.04
   6.51      17.37       2.631      3.00
   6.51      21.32       1.903      3.00
   6.51      25.28       1.209      3.01
   6.51      27.26       0.9957     3.01
   6.51      29.25       0.7104     3.01
   6.51      31.24       0.5349     3.01
   6.51      35.22       0.2246     3.02
   6.51      39.20       0.07700    3.90
   6.51      42.69       0.03325    9.02
   6.51      46.68       0.02927   10.25
   6.51      50.67       0.06316    4.75
   6.51      54.66       0.1147     3.03
   6.51      58.15       0.1486     3.02
   6.51      62.14       0.1752     3.02
   6.51      66.14       0.1812     3.02
   6.51      70.13       0.1726     3.02
   6.51      73.62       0.1661     3.02
   6.51      77.62       0.1305     3.02
   6.51      81.61       0.09582    3.13
   6.51      85.61       0.06324    4.74
   6.51      89.10       0.04391    6.83
   6.51      93.09       0.02376   12.63
   6.51      97.09       0.01272   23.58
   6.51     101.10       0.00902   33.26
   6.51     105.10       0.01060   28.30
   6.51     109.10       0.01673   17.93
   6.51     113.10       0.02622   11.44
   6.51     117.10       0.03745    8.01
   6.51     120.00       0.04390    6.83
   6.51     124.00       0.05135    5.84
   6.51     128.00       0.05387    5.57
   6.51     132.00       0.05079    5.91
   6.51     135.50       0.04785    6.27
   6.51     139.50       0.03929    7.64
   6.51     143.50       0.03241    9.26
   6.51     145.50       0.02918   10.28
   6.51     147.50       0.02564   11.70
   6.51     149.50       0.02347   12.78
   6.51     153.40       0.01895   15.83
   6.51     157.40       0.02011   14.92
   7.14      17.37       2.977      3.00
   7.14      21.32       2.170      3.00
   7.14      25.28       1.375      3.00
   7.14      27.26       1.062      3.00
   7.14      29.25       0.8022     3.00
   7.14      31.24       0.5739     3.00
   7.14      35.22       0.2485     3.01
   7.14      39.20       0.08853    3.39
   7.14      42.69       0.03927    7.64
   7.14      46.68       0.03971    7.55
   7.14      50.67       0.07713    3.89
   7.14      54.66       0.1267     3.01
   7.14      58.15       0.1587     3.01
   7.14      62.14       0.1763     3.01
   7.14      66.14       0.1716     3.01
   7.14      70.13       0.1538     3.01
   7.14      73.62       0.1364     3.01
   7.14      77.62       0.1028     3.01
   7.14      81.61       0.07515    3.99
   7.14      85.61       0.04719    6.36
   7.14      89.10       0.03041    9.87
   7.14      93.09       0.01606   18.83
   7.14      97.09       0.01029   29.16
   7.14     101.10       0.00901   33.34
   7.14     105.10       0.01161   25.88
   7.14     109.10       0.01877   16.11
   7.14     113.10       0.02653   11.32
   7.14     117.10       0.03524    8.52
   7.14     120.00       0.04077    7.37
   7.14     124.00       0.04477    6.70
   7.14     128.00       0.04459    6.73
   7.14     132.00       0.04252    7.06
   7.14     135.50       0.03836    7.82
   7.14     139.50       0.03147    9.57
   7.14     143.50       0.02439   12.30
   7.14     145.50       0.02160   13.90
   7.14     147.50       0.01896   15.83
   7.14     149.50       0.01741   17.30
   7.14     153.40       0.01655   18.16
   7.14     157.40       0.01948   15.41
   7.51      17.37       3.091      3.00
   7.51      21.32       2.193      3.00
   7.51      25.28       1.420      3.00
   7.51      27.26       1.052      3.01
   7.51      29.25       0.8254     3.01
   7.51      31.24       0.5531     3.01
   7.51      35.22       0.2368     3.02
   7.51      39.20       0.08990    3.34
   7.51      42.69       0.04187    7.16
   7.51      46.68       0.04858    6.18
   7.51      50.67       0.09101    3.30
   7.51      54.66       0.1390     3.02
   7.51      58.15       0.1636     3.02
   7.51      62.14       0.1747     3.02
   7.51      66.14       0.1628     3.02
   7.51      70.13       0.1436     3.02
   7.51      73.62       0.1225     3.02
   7.51      77.62       0.08818    3.40
   7.51      81.61       0.06095    4.92
   7.51      85.61       0.03770    7.96
   7.51      89.10       0.02417   12.41
   7.51      93.09       0.01400   21.43
   7.51      97.09       0.00969   30.98
   7.51     101.10       0.00960   31.26
   7.51     105.10       0.01275   23.53
   7.51     109.10       0.01820   16.48
   7.51     113.10       0.02576   11.65
   7.51     117.10       0.03167    9.47
   7.51     120.00       0.03477    8.63
   7.51     124.00       0.03745    8.01
   7.51     128.00       0.03882    7.73
   7.51     132.00       0.03338    8.99
   7.51     135.50       0.03325    9.02
   7.51     139.50       0.02626   11.42
   7.51     143.50       0.02027   14.80
   7.51     145.50       0.01807   16.60
   7.51     147.50       0.01659   18.08
   7.51     149.50       0.01549   19.37
   7.51     153.40       0.01566   19.16
   7.51     157.40       0.01891   15.86
   8.03      17.37       3.457      3.00
   8.03      21.32       2.448      3.00
   8.03      25.28       1.510      3.00
   8.03      27.26       1.151      3.00
   8.03      29.25       0.8122     3.00
   8.03      31.24       0.5957     3.00
   8.03      35.22       0.2380     3.01
   8.03      39.20       0.08114    3.14
   8.03      42.69       0.04416    5.67
   8.03      46.68       0.05482    4.58
   8.03      50.67       0.09742    3.02
   8.03      54.66       0.1443     3.01
   8.03      58.15       0.1635     3.01
   8.03      62.14       0.1683     3.01
   8.03      66.14       0.1515     3.01
   8.03      70.13       0.1245     3.01
   8.03      73.62       0.1071     3.01
   8.03      77.62       0.07427    3.37
   8.03      81.61       0.04713    5.32
   8.03      85.61       0.02784    9.02
   8.03      89.10       0.01853   13.49
   8.03      93.09       0.00998   25.05
   8.03      97.09       0.00821   30.50
   8.03     101.10       0.00924   27.08
   8.03     105.10       0.01357   18.46
   8.03     109.10       0.01853   13.56
   8.03     113.10       0.02277   11.00
   8.03     117.10       0.02884    8.70
   8.03     120.00       0.03218    7.77
   8.03     124.00       0.03474    7.22
   8.03     128.00       0.03295    7.59
   8.03     132.00       0.03025    8.27
   8.03     135.50       0.02651    9.43
   8.03     139.50       0.02124   11.77
   8.03     143.50       0.01555   16.09
   8.03     145.50       0.01452   17.25
   8.03     147.50       0.01259   19.88
   8.03     149.50       0.01230   20.32
   8.03     153.40       0.01319   18.96
   8.03     157.40       0.01862   13.43
   8.41      17.37       3.403      3.00
   8.41      21.32       2.395      3.00
   8.41      25.28       1.434      3.00
   8.41      27.26       1.104      3.01
   8.41      29.25       0.7261     3.01
   8.41      31.24       0.5488     3.01
   8.41      35.22       0.2124     3.02
   8.41      39.20       0.07384    4.06
   8.41      42.69       0.04665    6.43
   8.41      46.68       0.06935    4.33
   8.41      50.67       0.1171     3.03
   8.41      54.66       0.1569     3.02
   8.41      58.15       0.1688     3.02
   8.41      62.14       0.1652     3.02
   8.41      66.14       0.1447     3.02
   8.41      70.13       0.1092     3.02
   8.41      73.62       0.09083    3.30
   8.41      77.62       0.06599    4.55
   8.41      81.61       0.03744    8.01
   8.41      85.61       0.02213   13.56
   8.41      89.10       0.01480   20.27
   8.41      93.09       0.01138   26.36
   8.41      97.09       0.00911   32.94
   8.41     101.10       0.01119   26.81
   8.41     105.10       0.01331   22.54
   8.41     109.10       0.02039   14.71
   8.41     113.10       0.02268   13.23
   8.41     117.10       0.02672   11.23
   8.41     120.00       0.02793   10.74
   8.41     124.00       0.03053    9.83
   8.41     128.00       0.02897   10.36
   8.41     132.00       0.02446   12.26
   8.41     135.50       0.02183   13.74
   8.41     139.50       0.01856   16.16
   8.41     143.50       0.01456   20.60
   8.41     145.50       0.01286   23.33
   8.41     147.50       0.01353   22.17
   8.41     149.50       0.01286   23.33
   8.41     153.40       0.01483   20.23
   8.41     157.40       0.02064   14.53
   9.06      17.37       3.602      3.00
   9.06      21.32       2.384      3.00
   9.06      25.28       1.529      3.00
   9.06      27.26       1.137      3.01
   9.06      29.25       0.8422     3.01
   9.06      31.24       0.5442     3.01
   9.06      35.22       0.2337     3.02
   9.06      39.20       0.09087    3.30
   9.06      42.69       0.05472    5.48
   9.06      46.68       0.06525    4.60
   9.06      50.67       0.1065     3.03
   9.06      54.66       0.1440     3.02
   9.06      58.15       0.1523     3.02
   9.06      62.14       0.1459     3.02
   9.06      66.14       0.1260     3.02
   9.06      70.13       0.09805    3.06
   9.06      73.62       0.07476    4.01
   9.06      77.62       0.04797    6.25
   9.06      81.61       0.03044    9.85
   9.06      85.61       0.02017   14.87
   9.06      89.10       0.01752   17.12
   9.06      93.09       0.01539   19.49
   9.06      97.09       0.01424   21.07
   9.06     101.10       0.01531   19.60
   9.06     105.10       0.01695   17.70
   9.06     109.10       0.01903   15.76
   9.06     113.10       0.02193   13.68
   9.06     117.10       0.02488   12.06
   9.06     120.00       0.02924   10.26
   9.06     124.00       0.02959   10.14
   9.06     128.00       0.02970   10.10
   9.06     132.00       0.02606   11.51
   9.06     135.50       0.01980   15.15
   9.06     139.50       0.01596   18.80
   9.06     143.50       0.01324   22.66
   9.06     145.50       0.01321   22.71
   9.06     147.50       0.01184   25.34
   9.06     149.50       0.01239   24.21
   9.06     153.40       0.01586   18.92
   9.06     157.40       0.02304   13.02
   9.51      17.37       3.460      3.00
   9.51      21.32       2.484      3.00
   9.51      25.28       1.482      3.00
   9.51      27.26       1.009      3.01
   9.51      29.25       0.7684     3.01
   9.51      31.24       0.5469     3.01
   9.51      35.22       0.2144     3.02
   9.51      39.20       0.08034    3.73
   9.51      42.69       0.05378    5.58
   9.51      46.68       0.07172    4.18
   9.51      50.67       0.1131     3.03
   9.51      54.66       0.1430     3.02
   9.51      58.15       0.1438     3.02
   9.51      62.14       0.1317     3.02
   9.51      66.14       0.1087     3.03
   9.51      70.13       0.07989    3.76
   9.51      73.62       0.05936    5.05
   9.51      77.62       0.03765    7.97
   9.51      81.61       0.02507   11.97
   9.51      85.61       0.01605   18.69
   9.51      89.10       0.01451   20.68
   9.51      93.09       0.01398   21.46
   9.51      97.09       0.01547   19.39
   9.51     101.10       0.01659   18.08
   9.51     105.10       0.01796   16.70
   9.51     109.10       0.01879   15.97
   9.51     113.10       0.02166   13.85
   9.51     117.10       0.02310   12.99
   9.51     120.00       0.02584   11.61
   9.51     124.00       0.02557   11.73
   9.51     128.00       0.02505   11.98
   9.51     132.00       0.02013   14.90
   9.51     135.50       0.01694   17.71
   9.51     139.50       0.01361   22.04
   9.51     143.50       0.01251   23.98
   9.51     145.50       0.01281   23.42
   9.51     147.50       0.01214   24.71
   9.51     149.50       0.01399   21.44
   9.51     153.40       0.01983   15.13
   9.51     157.40       0.02515   11.93
   9.99      17.37       3.502      3.00
   9.99      21.32       2.278      3.00
   9.99      25.28       1.401      3.00
   9.99      27.26       0.9891     3.01
   9.99      29.25       0.6949     3.01
   9.99      31.24       0.4582     3.01
   9.99      35.22       0.1816     3.02
   9.99      39.20       0.07163    4.19
   9.99      42.69       0.05428    5.53
   9.99      46.68       0.07600    3.95
   9.99      50.67       0.1144     3.03
   9.99      54.66       0.1358     3.03
   9.99      58.15       0.1299     3.02
   9.99      62.14       0.1152     3.03
   9.99      66.14       0.09515    3.15
   9.99      70.13       0.06781    4.42
   9.99      73.62       0.04981    6.02
   9.99      77.62       0.03041    9.86
   9.99      81.61       0.01998   15.02
   9.99      85.61       0.01381   21.72
   9.99      89.10       0.01388   21.61
   9.99      93.09       0.01338   22.42
   9.99      97.09       0.01582   18.96
   9.99     101.10       0.01651   18.17
   9.99     105.10       0.01806   16.61
   9.99     109.10       0.01927   15.57
   9.99     113.10       0.02016   14.88
   9.99     117.10       0.02121   14.14
   9.99     120.00       0.02344   12.80
   9.99     124.00       0.02452   12.23
   9.99     128.00       0.02176   13.79
   9.99     132.00       0.02061   14.56
   9.99     135.50       0.01545   19.42
   9.99     139.50       0.01161   25.84
   9.99     143.50       0.00947   31.68
   9.99     145.50       0.01113   26.95
   9.99     147.50       0.01049   28.60
   9.99     149.50       0.01363   22.01
   9.99     153.40       0.01800   16.67
   9.99     157.40       0.02618   11.46
ENDDATA            482
ENDSUBENT          489
ENDENTRY             2
