ENTRY            13799   20120425   20120921   20120721       1380
SUBENT        13799001   20120425   20120921   20120721       1380
BIB                 12         22
INSTITUTE  (1USALTI)
REFERENCE  (J,NSE,98,341,1988)
           (T,SHARFUDDIN,1986)
AUTHOR     (Q.Sharfuddin,W.A.Schier,R.S.Tanczyn,D.J.Pullen,
           M.H.Haghighi,L.Fisteag,G.P.Couchell)
TITLE      Search for an Energy Dependence in the 235U Delayed
            Neutron Spectra
FACILITY   (VDG,1USALTI)
INC-SOURCE (P-LI7)
SAMPLE     235U-lined hemispherical chamber.
METHOD     (TOF)
DETECTOR   (GLASD,SCIN) NE-912 6Li glass detector and BC-501
            liquid scintillators used.
ERR-ANALYS (DATA-ERR) the uncertainties in the measurements
           were approximately +- 10% of the spectrum yield over
           most of the 150- to 600-keV region where the majority
           of the DN counts reside
STATUS     (TABLE) Data taken from Appendix B of thesis.
           No reply received from W.Schier to author proof.
HISTORY    (20021212C)
           (20120425A) SD: REACTION code and data units in
                      Subent 2 changed. BIB update.
ENDBIB              22
NOCOMMON             0          0
ENDSUBENT           25
SUBENT        13799002   20120425   20120921   20120721       1380
BIB                  3         11
REACTION   (92-U-235(N,F),DL/GRP,NU/DE,,REL)
           To normalize a pair of spectra (see REL-REF), a ratio
           of gamma peak areas was taken, since the gamma peak and
           the neutron 'peak' scaled together. (The vertical yield
           scale and horizontal lO-keV neutron energy bin size are
           consistent with the eight DN spectra normalized to
           10**4 counts presented in the NSE,94,353,1986
REL-REF    (A,13800002,R.S.Tanczyn+,J,NSE,94,353,1986) - data
            used for comparison
HISTORY    (20120425A) SD: REACTION code was changed. Data units
                     were changed.
ENDBIB              11
COMMON               1          3
EN-MEAN
EV
  1.8
ENDCOMMON            3
DATA                 3       1000
GRP-NUM    E          DATA
NO-DIM     KEV        ARB-UNITS
  2.         10.        73.59187
  2.         20.        96.24543
  2.         30.       147.00351
  2.         40.       114.20803
  2.         50.        95.93218
  2.         60.        60.56631
  2.         70.        85.59907
  2.         80.       112.50970
  2.         90.       116.10475
  2.        100.        91.13757
  2.        110.        74.43772
  2.        120.        69.90594
  2.        130.        74.79809
  2.        143.        73.41393
  2.        150.        82.89145
  2.        160.        94.11743
  2.        170.       103.67162
  2.        180.       110.51243
  2.        190.       123.87699
  2.        200.       145.81495
  2.        210.       160.52312
  2.        220.       171.98371
  2.        230.       164.70251
  2.        240.       159.47961
  2.        250.       142.35333
  2.        260.       131.96595
  2.        270.       121.20851
  2.        280.       124.16330
  2.        290.       135.13153
  2.        300.       152.42416
  2.        310.       164.17201
  2.        320.       171.88725
  2.        330.       179.46893
  2.        340.       186.24502
  2.        350.       188.22545
  2.        360.       183.04459
  2.        370.       185.16024
  2.        380.       196.55536
  2.        390.       209.59263
  2.        400.       214.86308
  2.        410.       207.69892
  2.        420.       195.44475
  2.        430.       182.23345
  2.        440.       175.95173
  2.        450.       166.82511
  2.        460.       153.25029
  2.        470.       132.66296
  2.        480.       119.55433
  2.        490.       110.73567
  2.        500.       105.60769
  2.        510.        96.94547
  2.        520.        91.53210
  2.        530.        87.54457
  2.        540.        86.26764
  2.        550.        85.09019
  2.        560.        87.10147
  2.        570.        89.69069
  2.        580.        87.51743
  2.        590.        79.72371
  2.        600.        70.34655
  2.        610.        65.17045
  2.        620.        62.43547
  2.        630.        59.59659
  2.        640.        54.67713
  2.        650.        49.31646
  2.        660.        46.04417
  2.        670.        47.02190
  2.        680.        50.39329
  2.        690.        54.41562
  2.        700.        57.92943
  2.        710.        59.25403
  2.        720.        53.11302
  2.        730.        56.24351
  2.        740.        55.32373
  2.        750.        54.30493
  2.        760.        51.74657
  2.        770.        47.47953
  2.        780.        44.83944
  2.        790.        43.38986
  2.        800.        42.34250
  2.        810.        41.35606
  2.        820.        40.56309
  2.        830.        40.62515
  2.        840.        41.39577
  2.        850.        40.34214
  2.        860.        37.00753
  2.        870.        31.47253
  2.        880.        27.32774
  2.        890.        23.29024
  2.        900.        31.72133
  2.        910.        35.98559
  2.        920.        39.30993
  2.        930.        41.00492
  2.        940.        40.64454
  2.        950.        33.20475
  2.        960.        33.88844
  2.        970.        29.31014
  2.        980.        25.04454
  2.        990.        22.40250
  2.       1000.        20.62970
  2.       1010.        13.66890
  2.       1020.        17.03233
  2.       1030.        15.35393
  2.       1040.        17.32883
  2.       1050.        17.27092
  2.       1060.        15.54344
  2.       1070.        11.24334
  2.       1080.        10.03725
  2.       1090.        12.02011
  2.       1100.        16.24315
  2.       1110.        17.70239
  2.       1120.        16.47219
  2.       1130.        13.13522
  2.       1140.        10.03016
  2.       1150.         9.17358
  2.       1160.         8.55465
  2.       1170.         8.12290
  2.       1180.         7.95101
  2.       1190.         7.92370
  2.       1200.         7.96588
  2.       1210.         7.99701
  2.       1220.         8.02386
  2.       1230.        10.16110
  2.       1240.        12.93719
  2.       1250.        14.35439
  2.       1260.        13.96313
  2.       1270.        12.22035
  2.       1280.        10.36492
  2.       1290.         9.99761
  2.       1300.        10.97572
  2.       1310.        12.41251
  2.       1320.        12.80037
  2.       1330.        11.02125
  2.       1340.         7.82907
  2.       1350.         3.57398
  2.       1360.         2.58611
  2.       1370.         2.71335
  2.       1380.         2.85116
  2.       1390.         3.00259
  2.       1400.         3.16553
  2.       1410.         3.39567
  2.       1420.         3.53134
  2.       1430.         3.62330
  2.       1440.         3.41072
  2.       1450.         2.95194
  2.       1460.         2.45219
  2.       1470.         2.17660
  2.       1480.         3.31106
  2.       1490.         4.81999
  2.       1500.         5.56521
  2.       1510.         5.52539
  2.       1520.         4.97816
  2.       1530.         4.21013
  2.       1540.         3.45271
  2.       1550.         2.91406
  2.       1560.         2.80529
  2.       1570.         3.20202
  2.       1580.         3.87312
  2.       1590.         4.46181
  2.       1600.         4.53721
  2.       1610.         4.33033
  2.       1620.         4.15114
  2.       1630.         4.20391
  2.       1640.         4.33307
  2.       1650.         4.34866
  2.       1660.         4.26503
  2.       1670.         4.04745
  2.       1680.         3.16667
  2.       1690.         1.54314
  2.       1700.         0.18293
  2.       1710.         0.13545
  2.       1720.         0.12773
  2.       1730.         0.14263
  2.       1740.         0.14073
  2.       1750.         0.12559
  2.       1760.         0.10111
  2.       1770.         0.07741
  2.       1780.         0.05996
  2.       1790.         0.05259
  2.       1800.         0.04444
  2.       1810.         0.01424
  2.       1820.         0.00000
  2.       1830.         0.00000
  2.       1840.         0.00000
  2.       1850.         0.00000
  2.       1860.         0.00000
  2.       1870.         0.00000
  2.       1880.         0.00000
  2.       1890.         0.00000
  2.       1900.         0.03541
  2.       1910.         0.63962
  2.       1920.         0.62260
  2.       1930.         0.60981
  2.       1940.         0.63279
  2.       1950.         0.68739
  2.       1960.         0.77511
  2.       1970.         0.84331
  2.       1980.         0.88153
  2.       1990.         0.78837
  2.       2000.         0.59065
  3.         10.        81.15113
  3.         20.        52.63119
  3.         30.         0.36328
  3.         40.        25.44160
  3.         50.       109.49023
  3.         60.       198.33908
  3.         70.       173.61317
  3.         80.       108.62253
  3.         90.        94.11561
  3.        100.       156.00595
  3.        110.       209.75977
  3.        120.       223.88204
  3.        130.       195.23970
  3.        143.       161.73500
  3.        150.       118.99898
  3.        160.        99.49943
  3.        170.        86.30417
  3.        180.        70.70051
  3.        190.        41.01676
  3.        200.        14.41714
  3.        210.        24.30398
  3.        220.        32.55578
  3.        230.        69.86377
  3.        240.        74.55596
  3.        250.       106.34114
  3.        260.       122.40945
  3.        270.       151.36495
  3.        280.       167.91633
  3.        290.       184.20373
  3.        300.       192.71994
  3.        310.       185.28416
  3.        320.       160.49267
  3.        330.       131.51554
  3.        340.       124.81513
  3.        350.       137.22225
  3.        360.       155.30807
  3.        370.       142.20240
  3.        380.       105.81309
  3.        390.        71.81145
  3.        400.        54.36413
  3.        410.        62.52305
  3.        420.        71.89825
  3.        430.        86.51007
  3.        440.        85.71408
  3.        450.        94.70215
  3.        460.       107.25989
  3.        470.       130.97920
  3.        480.       131.31380
  3.        490.       129.73885
  3.        500.       118.53506
  3.        510.       121.34654
  3.        520.       110.76615
  3.        530.       103.49431
  3.        540.        97.05245
  3.        550.        97.67205
  3.        560.        37.52629
  3.        570.        67.11292
  3.        580.        56.67577
  3.        590.        63.22914
  3.        600.        72.17323
  3.        610.        70.15510
  3.        620.        53.94238
  3.        630.        54.96654
  3.        640.        60.93372
  3.        650.        71.04239
  3.        660.        78.31559
  3.        670.        82.57053
  3.        680.        85.48477
  3.        690.        85.19671
  3.        700.        77.06464
  3.        710.        68.99351
  3.        720.        63.77247
  3.        730.        55.15495
  3.        740.        39.54248
  3.        750.        25.21502
  3.        760.        24.05060
  3.        770.        37.12225
  3.        780.        50.31345
  3.        790.        58.21058
  3.        800.        56.88490
  3.        810.        51.94781
  3.        820.        46.02122
  3.        830.        33.79007
  3.        840.        32.30503
  3.        850.        30.12520
  3.        860.        36.46135
  3.        870.        47.85857
  3.        880.        55.42908
  3.        890.        54.97436
  3.        900.        48.44089
  3.        910.        39.97646
  3.        920.        30.35737
  3.        930.        21.81390
  3.        940.        16.48040
  3.        950.        17.92439
  3.        960.        25.02937
  3.        970.        32.24706
  3.        980.        36.97725
  3.        990.        33.04113
  3.       1000.        40.30896
  3.       1010.        42.10447
  3.       1020.        39.10489
  3.       1030.        31.27961
  3.       1040.        16.42326
  3.       1050.        12.09178
  3.       1060.        18.94466
  3.       1070.        37.20817
  3.       1080.        43.35638
  3.       1090.        37.29558
  3.       1100.        20.94941
  3.       1110.        14.76205
  3.       1120.        18.62512
  3.       1130.        30.71231
  3.       1140.        41.57359
  3.       1150.        52.26336
  3.       1160.        64.09241
  3.       1170.        73.62153
  3.       1180.        74.17927
  3.       1190.        64.34343
  3.       1200.        51.30505
  3.       1210.        39.74481
  3.       1220.        28.72023
  3.       1230.        15.33403
  3.       1240.         3.86967
  3.       1250.         0.00000
  3.       1260.         0.00000
  3.       1270.         5.62933
  3.       1280.         9.93542
  3.       1290.         8.81030
  3.       1300.         2.13915
  3.       1310.         0.00000
  3.       1320.         0.00000
  3.       1330.         0.00000
  3.       1340.         1.48982
  3.       1350.        17.33931
  3.       1360.        28.55630
  3.       1370.        34.37214
  3.       1380.        33.59167
  3.       1390.        31.33634
  3.       1400.        29.31901
  3.       1410.        23.16653
  3.       1420.        25.77523
  3.       1430.        21.50435
  3.       1440.        16.18821
  3.       1450.        13.33033
  3.       1460.        11.12617
  3.       1470.         7.20672
  3.       1480.         0.00000
  3.       1490.         0.00000
  3.       1500.         0.00000
  3.       1510.         0.00000
  3.       1520.         0.00000
  3.       1530.         0.00000
  3.       1540.         0.00000
  3.       1550.         0.00000
  3.       1560.         0.00000
  3.       1570.         0.00000
  3.       1580.         0.00000
  3.       1590.         0.00000
  3.       1600.         0.00000
  3.       1610.         0.00000
  3.       1620.         0.00000
  3.       1630.         0.00000
  3.       1640.         0.00000
  3.       1650.         0.00000
  3.       1660.         0.00000
  3.       1670.         0.30000
  3.       1680.         0.00000
  3.       1690.         0.00000
  3.       1700.         5.84674
  3.       1710.        12.14823
  3.       1720.        15.26576
  3.       1730.        15.56969
  3.       1740.        16.08214
  3.       1750.        16.80032
  3.       1760.        17.62417
  3.       1770.        17.73035
  3.       1780.        17.52645
  3.       1790.        17.11444
  3.       1800.        17.37733
  3.       1810.        18.37143
  3.       1820.        20.04879
  3.       1830.        21.52049
  3.       1840.        22.40752
  3.       1850.        22.60549
  3.       1860.        22.55731
  3.       1870.        19.95521
  3.       1880.        14.80218
  3.       1890.         7.12596
  3.       1900.         1.94205
  3.       1910.         0.00000
  3.       1920.         0.00000
  3.       1930.         0.00000
  3.       1940.         0.00000
  3.       1950.         0.00000
  3.       1960.         0.00000
  3.       1970.         0.00000
  3.       1980.         0.00000
  3.       1990.         0.00000
  3.       2000.         0.00000
  4.         10.        89.22673
  4.         20.       118.50496
  4.         30.       126.36226
  4.         40.       107.80455
  4.         50.        87.62103
  4.         60.        79.06239
  4.         70.       103.60534
  4.         80.       123.66051
  4.         90.       132.18848
  4.        100.       111.71017
  4.        110.        98.15237
  4.        120.       102.47919
  4.        130.       117.10463
  4.        143.       138.10933
  4.        150.       157.59194
  4.        160.       168.65548
  4.        170.       167.97466
  4.        180.       164.00511
  4.        190.       166.22290
  4.        200.       175.00982
  4.        210.       175.74496
  4.        220.       172.15359
  4.        230.       151.60409
  4.        240.       136.94699
  4.        250.       116.43214
  4.        260.       110.32620
  4.        270.       106.66360
  4.        280.       109.01063
  4.        290.       105.26841
  4.        300.       103.11298
  4.        310.       104.66333
  4.        320.       112.97140
  4.        330.       119.28472
  4.        340.       116.90479
  4.        350.       108.85011
  4.        360.        98.97500
  4.        370.        99.99528
  4.        380.       108.38508
  4.        390.       118.70771
  4.        400.       125.26113
  4.        410.       125.69367
  4.        420.       127.00013
  4.        430.       124.63725
  4.        440.       122.71512
  4.        450.       114.11060
  4.        460.       103.62369
  4.        470.        91.06232
  4.        480.        87.42374
  4.        490.        83.62897
  4.        500.        83.83554
  4.        510.        79.00050
  4.        520.        80.29004
  4.        530.        82.15373
  4.        540.        84.95003
  4.        550.        83.63202
  4.        560.        82.43815
  4.        570.        81.34423
  4.        580.        79.53676
  4.        590.        75.32137
  4.        600.        72.42594
  4.        610.        72.42711
  4.        620.        73.43438
  4.        630.        71.17033
  4.        640.        66.52925
  4.        650.        62.12637
  4.        660.        59.77411
  4.        670.        53.23761
  4.        680.        55.98525
  4.        690.        53.24930
  4.        700.        51.44624
  4.        710.        49.87242
  4.        720.        48.63691
  4.        730.        51.16350
  4.        740.        57.26073
  4.        750.        62.54088
  4.        760.        62.04307
  4.        770.        55.16607
  4.        780.        43.05353
  4.        790.        42.06189
  4.        800.        39.48534
  4.        810.        33.85083
  4.        820.        40.71974
  4.        830.        43.91018
  4.        840.        46.33363
  4.        850.        46.29326
  4.        860.        43.45734
  4.        870.        39.84868
  4.        880.        37.92513
  4.        890.        38.43690
  4.        900.        39.99443
  4.        910.        41.34017
  4.        920.        43.33706
  4.        930.        46.42990
  4.        940.        47.83961
  4.        950.        47.06968
  4.        960.        44.43430
  4.        970.        42.21530
  4.        980.        41.23050
  4.        990.        40.78262
  4.       1000.        39.51475
  4.       1010.        37.13036
  4.       1020.        35.70661
  4.       1030.        35.34346
  4.       1040.        37.39620
  4.       1050.        37.22293
  4.       1060.        33.49497
  4.       1070.        26.82731
  4.       1080.        24.06070
  4.       1090.        25.20207
  4.       1100.        29.75679
  4.       1110.        31.06234
  4.       1120.        29.07310
  4.       1130.        24.17507
  4.       1140.        19.17706
  4.       1150.        13.46609
  4.       1160.         6.79091
  4.       1170.         1.42494
  4.       1180.         0.47319
  4.       1190.         4.10763
  4.       1200.         9.62643
  4.       1210.        14.22090
  4.       1220.        18.40957
  4.       1230.        22.91232
  4.       1240.        26.95255
  4.       1250.        28.34456
  4.       1260.        26.32715
  4.       1270.        23.34314
  4.       1280.        21.26013
  4.       1290.        21.40594
  4.       1300.        24.00746
  4.       1310.        27.75959
  4.       1320.        30.06495
  4.       1330.        28.35449
  4.       1340.        22.79099
  4.       1350.        14.57143
  4.       1360.         8.88647
  4.       1370.         5.88961
  4.       1380.         5.77626
  4.       1390.         5.89060
  4.       1400.         6.00027
  4.       1410.         6.02166
  4.       1420.         6.24692
  4.       1430.         6.72965
  4.       1440.         7.33334
  4.       1450.         7.60376
  4.       1460.         8.34776
  4.       1470.        10.43189
  4.       1480.        14.05213
  4.       1490.        17.66267
  4.       1500.        19.77764
  4.       1510.        19.72211
  4.       1520.        17.73463
  4.       1530.        14.52795
  4.       1540.        11.51147
  4.       1550.         9.70534
  4.       1560.         9.22427
  4.       1570.         9.52463
  4.       1580.        10.05603
  4.       1590.        10.61177
  4.       1600.        10.33197
  4.       1610.        10.91326
  4.       1620.        11.14790
  4.       1630.        11.77130
  4.       1640.        12.76040
  4.       1650.        13.45522
  4.       1660.        13.79250
  4.       1670.        13.52908
  4.       1680.        11.72464
  4.       1690.         8.39435
  4.       1700.         4.01104
  4.       1710.         1.11192
  4.       1720.         0.00000
  4.       1730.         0.00000
  4.       1740.         0.00000
  4.       1750.         0.00000
  4.       1760.         0.00000
  4.       1770.         0.00000
  4.       1780.         0.00000
  4.       1790.         0.00000
  4.       1800.         0.00000
  4.       1810.         0.00000
  4.       1820.         0.00000
  4.       1830.         0.00000
  4.       1840.         0.00000
  4.       1850.         0.00000
  4.       1860.         0.00000
  4.       1870.         0.00000
  4.       1880.         0.00000
  4.       1890.         0.05675
  4.       1900.         1.37534
  4.       1910.         2.03154
  4.       1920.         2.03272
  4.       1930.         2.02071
  4.       1940.         1.85030
  4.       1950.         1.48330
  4.       1960.         0.93618
  4.       1970.         0.51753
  4.       1980.         0.29331
  4.       1990.         0.23320
  4.       2000.         0.17471
  5.         10.        36.57561
  5.         20.        30.90434
  5.         30.        42.21326
  5.         40.        12.08124
  5.         50.        52.42673
  5.         60.        44.93722
  5.         70.        27.08215
  5.         80.         0.00000
  5.         90.         0.00000
  5.        100.         0.00000
  5.        110.        70.14641
  5.        120.       115.40441
  5.        130.       134.56974
  5.        143.       129.02744
  5.        150.       115.00793
  5.        160.        96.57134
  5.        170.        81.45749
  5.        180.        77.74723
  5.        190.        80.12490
  5.        200.        74.76323
  5.        210.        81.90092
  5.        220.        92.29671
  5.        230.       143.34773
  5.        240.       176.93239
  5.        250.       202.70007
  5.        260.       178.04904
  5.        270.       152.76232
  5.        280.       131.19082
  5.        290.       140.92089
  5.        300.       138.27137
  5.        310.       122.31764
  5.        320.        91.02288
  5.        330.        84.60264
  5.        340.       109.20102
  5.        350.       132.28712
  5.        360.       139.67201
  5.        370.       115.39957
  5.        380.        94.94079
  5.        390.        87.50977
  5.        400.        86.03333
  5.        410.        83.32217
  5.        420.        70.50443
  5.        430.        66.02867
  5.        440.        74.46376
  5.        450.        95.74437
  5.        460.       111.34422
  5.        470.       116.32546
  5.        480.        98.43315
  5.        490.        90.53379
  5.        500.        84.10627
  5.        510.        96.28471
  5.        520.       100.16373
  5.        530.       100.70126
  5.        540.        93.39350
  5.        550.        30.15599
  5.        560.        74.31230
  5.        570.        74.09446
  5.        580.        88.18891
  5.        590.       100.45033
  5.        600.       105.36745
  5.        610.       100.25950
  5.        620.        87.04576
  5.        630.        71.34103
  5.        640.        61.63759
  5.        650.        64.61257
  5.        660.        31.03567
  5.        670.        96.36177
  5.        680.       101.34316
  5.        690.        95.60653
  5.        700.        92.05677
  5.        710.        92.90747
  5.        720.        95.60521
  5.        730.        37.84906
  5.        740.        72.56800
  5.        750.        59.16407
  5.        760.        56.69130
  5.        770.        64.39524
  5.        780.        72.50669
  5.        790.        75.06300
  5.        800.        70.30813
  5.        810.        64.67812
  5.        820.        60.59927
  5.        830.        60.76775
  5.        840.        64.39197
  5.        850.        69.13906
  5.        860.        70.34103
  5.        870.        66.50429
  5.        880.        59.92893
  5.        890.        53.63736
  5.        900.        52.45330
  5.        910.        54.82291
  5.        920.        55.99379
  5.        930.        52.66902
  5.        940.        45.36335
  5.        950.        40.40052
  5.        960.        36.62605
  5.        970.        34.52226
  5.        980.        32.57354
  5.        990.        31.77016
  5.       1000.        32.41225
  5.       1010.        34.51733
  5.       1020.        35.92919
  5.       1030.        35.74530
  5.       1040.        33.62954
  5.       1050.        29.62892
  5.       1060.        24.11222
  5.       1070.        17.71960
  5.       1080.        18.03574
  5.       1090.        25.16079
  5.       1100.        38.65294
  5.       1110.        45.23006
  5.       1120.        45.78162
  5.       1130.        39.99644
  5.       1140.        38.75985
  5.       1150.        43.33271
  5.       1160.        55.37722
  5.       1170.        65.05917
  5.       1180.        68.05273
  5.       1190.        64.23936
  5.       1200.        57.88348
  5.       1210.        52.63024
  5.       1220.        48.01761
  5.       1230.        43.33099
  5.       1240.        39.29723
  5.       1250.        36.04032
  5.       1260.        33.67003
  5.       1270.        31.05571
  5.       1280.        28.99096
  5.       1290.        22.97698
  5.       1300.        13.00463
  5.       1310.         0.00000
  5.       1320.         0.00000
  5.       1330.         0.00000
  5.       1340.         5.05246
  5.       1350.        25.03239
  5.       1360.        38.62727
  5.       1370.        44.23811
  5.       1380.        41.43201
  5.       1390.        36.66935
  5.       1400.        32.53364
  5.       1410.        30.16698
  5.       1420.        29.04737
  5.       1430.        27.99912
  5.       1440.        26.71850
  5.       1450.        25.90673
  5.       1460.        24.24312
  5.       1470.        20.34644
  5.       1480.        13.88242
  5.       1490.         7.48338
  5.       1500.         3.66497
  5.       1510.         3.56439
  5.       1520.         6.73729
  5.       1530.        11.92473
  5.       1540.        16.32326
  5.       1550.        19.67698
  5.       1560.        19.45010
  5.       1570.        15.57755
  5.       1580.         8.96344
  5.       1590.         1.70373
  5.       1600.         0.00000
  5.       1610.         0.00000
  5.       1620.         0.00000
  5.       1630.         0.00000
  5.       1640.         0.00000
  5.       1650.         0.00000
  5.       1660.         0.00000
  5.       1670.         0.00000
  5.       1680.         0.00000
  5.       1690.         0.00000
  5.       1700.         3.08810
  5.       1710.         8.96773
  5.       1720.        11.64443
  5.       1730.        11.57621
  5.       1740.        11.01161
  5.       1750.         9.95400
  5.       1760.         8.49914
  5.       1770.         7.50321
  5.       1780.         7.00008
  5.       1790.         6.94181
  5.       1800.         6.60801
  5.       1810.         5.87072
  5.       1820.         4.72977
  5.       1830.         3.77619
  5.       1840.         3.24403
  5.       1850.         3.12143
  5.       1860.         3.11206
  5.       1870.         2.42357
  5.       1880.         1.05372
  5.       1890.         0.00000
  5.       1900.         0.00000
  5.       1910.         0.00000
  5.       1920.         0.00000
  5.       1930.         0.00000
  5.       1940.         0.00000
  5.       1950.         0.00000
  5.       1960.         0.33254
  5.       1970.         1.65165
  5.       1980.         2.06937
  5.       1990.         1.60510
  5.       2000.         0.77503
  6.         10.        36.07595
  6.         20.        56.34463
  6.         30.        50.04332
  6.         40.        96.66600
  6.         50.        82.94496
  6.         60.       121.31547
  6.         70.       164.37008
  6.         80.       229.26650
  6.         90.       351.42457
  6.        100.       343.54724
  6.        110.       270.93717
  6.        120.       208.10723
  6.        130.       188.51314
  6.        143.       182.94320
  6.        150.       190.02993
  6.        160.       190.34694
  6.        170.       202.31911
  6.        180.       211.48543
  6.        190.       210.85084
  6.        200.       206.58969
  6.        210.       181.92155
  6.        220.       163.48378
  6.        230.       123.56277
  6.        240.       112.20120
  6.        250.       100.88263
  6.        260.       119.37003
  6.        270.       128.80076
  6.        280.       136.77552
  6.        290.       117.93525
  6.        300.       106.28719
  6.        310.        99.25903
  6.        320.       111.86936
  6.        330.       112.44199
  6.        340.        98.92193
  6.        350.        84.30454
  6.        360.        82.37350
  6.        370.       102.94351
  6.        380.       126.85334
  6.        390.       146.14792
  6.        400.       156.03179
  6.        410.       161.47498
  6.        420.       159.64715
  6.        430.       153.64632
  6.        440.       135.75131
  6.        450.       119.76262
  6.        460.       113.13444
  6.        470.       115.35933
  6.        480.       124.24471
  6.        490.       116.68870
  6.        500.       112.44303
  6.        510.       106.41339
  6.        520.       107.74725
  6.        530.       106.40638
  6.        540.       104.13932
  6.        550.       106.72402
  6.        560.       105.44565
  6.        570.       100.19571
  6.        580.        83.47420
  6.        590.        79.74562
  6.        600.        69.40400
  6.        610.        62.51377
  6.        620.        61.91425
  6.        630.        72.15461
  6.        640.        81.07538
  6.        650.        75.30763
  6.        660.        50.43234
  6.        670.        27.43340
  6.        680.        17.70321
  6.        690.        23.20432
  6.        700.        27.86273
  6.        710.        29.75300
  6.        720.        30.21891
  6.        730.        36.06330
  6.        740.        45.22374
  6.        750.        50.13373
  6.        760.        46.63631
  6.        770.        33.70609
  6.        780.        23.43322
  6.        790.        21.39315
  6.        800.        29.26431
  6.        810.        33.05764
  6.        820.        39.80056
  6.        830.        32.42419
  6.        840.        20.12307
  6.        850.         3.03006
  6.        860.         0.75815
  6.        870.         0.00000
  6.        880.         3.77835
  6.        890.        10.77773
  6.        900.        15.04900
  6.        910.        16.22723
  6.        920.        14.74449
  6.        930.        13.43733
  6.        940.        12.32296
  6.        950.        12.93743
  6.        960.        13.90910
  6.        970.        14.94933
  6.        980.        15.86007
  6.        990.        14.52324
  6.        1000.       17.00189
  6.        1010.       17.30307
  6.        1020.       13.14734
  6.        1030.       13.70551
  6.        1040.       22.03320
  6.        1050.       25.17233
  6.        1060.       23.36764
  6.        1070.       32.36197
  6.        1080.       29.54722
  6.        1090.       19.89702
  6.        1100.        4.11247
  6.        1110.        0.00000
  6.        1120.        0.00000
  6.        1130.        0.00000
  6.        1140.        0.00000
  6.        1150.        0.00000
  6.        1160.        0.00000
  6.        1170.        0.00000
  6.        1180.        0.00000
  6.        1190.        0.00000
  6.        1200.        0.00000
  6.        1210.        0.00000
  6.        1220.        0.00000
  6.        1230.        0.00000
  6.        1240.        0.00000
  6.        1250.        0.00000
  6.        1260.        0.00000
  6.        1270.        0.00000
  6.        1280.        0.00000
  6.        1290.        3.56931
  6.        1300.        8.65658
  6.        1310.       15.80712
  6.        1320.       20.48966
  6.        1330.       18.13865
  6.        1340.        8.79817
  6.        1350.        0.00000
  6.        1360.        0.00000
  6.        1370.        0.00000
  6.        1380.        0.00030
  6.        1390.        0.00000
  6.        1400.        0.00000
  6.        1410.        0.00000
  6.        1420.        0.00000
  6.        1430.        0.00000
  6.        1440.        0.00000
  6.        1450.        0.00000
  6.        1460.        0.00000
  6.        1470.        0.00000
  6.        1480.        0.86058
  6.        1490.        4.56970
  6.        1500.        6.77161
  6.        1510.        6.40086
  6.        1520.        3.41529
  6.        1530.        0.00000
  6.        1540.        0.00000
  6.        1550.        0.00000
  6.        1560.        0.00030
  6.        1570.        0.00000
  6.        1580.        3.07253
  6.        1590.       11.02076
  6.        1600.       15.89922
  6.        1610.       17.72463
  6.        1620.       16.90849
  6.        1630.       15.28263
  6.        1640.       12.84915
  6.        1650.       11.09466
  6.        1660.       10.16267
  6.        1670.        9.71461
  6.        1680.        7.25528
  6.        1690.        2.71759
  6.        1700.        0.00000
  6.        1710.        0.00000
  6.        1720.        0.00000
  6.        1730.        0.00000
  6.        1740.        0.00000
  6.        1750.        0.00000
  6.        1760.        0.00000
  6.        1770.        0.00000
  6.        1780.        0.00000
  6.        1790.        0.00000
  6.        1800.        0.00000
  6.        1810.        0.00000
  6.        1820.        0.00000
  6.        1830.        0.00000
  6.        1840.        0.00000
  6.        1850.        0.00000
  6.        1860.        0.00000
  6.        1870.        0.00000
  6.        1880.        1.22316
  6.        1890.        3.30235
  6.        1900.        4.71312
  6.        1910.        5.41514
  6.        1920.        5.74234
  6.        1930.        5.38813
  6.        1940.        4.67679
  6.        1950.        3.14992
  6.        1960.        0.81033
  6.        1970.        0.00000
  6.        1980.        0.00000
  6.        1990.        0.00000
  6.        2000.        0.00000
ENDDATA           1002
ENDSUBENT         1022
ENDENTRY             2
